# Diamond Light Source
# Instrument: B18-CORE XAS Date: Wed, 27 Jul 2016 22:52:36 BST
# Ring energy:   3.0
# Ring current - start: 300.7
# Primary slits:  vertical gap=  2.4; horizontal gap= 52.0; vertical offset=  0.4; horizontal offset= -1.0
# Secondary slits:  vertical gap=  3.5; horizontal gap= 23.0; vertical offset=  5.3; horizontal offset= -14.5
# OH Mirror Coating: Pt
# White beam filter: 140um PyC
# Crystal cut: Si(311)
# PostDCM slits:  vertical gap= 18.0; horizontal gap= 28.0; vertical offset= -9.1; horizontal offset= -16.5
# Experimental slits:  vertical gap= 28.6; horizontal gap= 45.0; vertical offset=  5.7; horizontal offset= -17.5
# HR Mirror : out; Y: 37.8; Pitch:  0.3; Coating: Pt
# Mirror 2: Pitch:  2.3; Height: -6.4; Yaw: -1.6; Bend:  0.8;
# I0 Stanford sensitivity: 20 nA/V Offsets: 20 pA
# It Stanford sensitivity: 100 nA/V Offsets: 1 pA
# Iref Stanford sensitivity: 20 nA/V Offsets: 1 pA
#
# Ascii output file name: 'Andrea_Sn//ascii/262884_PtSn_OC_Abu_3.dat'
# Nexus output file: '/dls/b18/data/2016/sp10306-9/Andrea_Sn//nexus/262884_PtSn_OC_Abu_3.nxs'
# XML folder and files:
# /dls/b18/data/2016/sp10306-9/xml/Andrea_Sn/
# QEXAFS_Parameters
# Sample_Parameters
# Detector_Parameters
# Output_Parameters
# The contents of these files are also stored in the nexus file.
#
# Sample name: PtSn_OC_Abu
# Sample description: default sample description
# Additional comments: default additional comments
# command: qexafs_energy 29000.0 30050.0 2094 263.53 qexafs_counterTimer01
#
#
# qexafs_energy	   time	       I0	       It	     Iref	  lnI0It	 lnItIref
     29000.24	0.13497	2054105.0	1612666.0	3349690.0	0.241952	-0.730979
     29000.73	0.17430	2679638.0	2103464.0	4368308.0	0.242096	-0.730790
     29001.21	0.14734	2239403.0	1757926.0	3651686.0	0.242075	-0.731054
     29001.69	0.084586	1289369.0	1012161.0	2102715.0	0.242065	-0.731142
     29002.18	0.11423	1752566.0	1375943.0	2858196.0	0.241942	-0.731051
     29002.66	0.12457	1880143.0	1475941.0	3066044.0	0.242052	-0.731092
     29003.14	0.12730	1941042.0	1523659.0	3165288.0	0.242110	-0.731129
     29003.63	0.13228	2012060.0	1579760.0	3281743.0	0.241886	-0.731102
     29004.11	0.12949	1953626.0	1534052.0	3187057.0	0.241775	-0.731185
     29004.59	0.12442	1869352.0	1467880.0	3049448.0	0.241773	-0.731141
     29005.08	0.12650	1915371.0	1503553.0	3123457.0	0.242080	-0.731109
     29005.56	0.12237	1851446.0	1453798.0	3020171.0	0.241788	-0.731134
     29006.05	0.12986	2000687.0	1570970.0	3264284.0	0.241797	-0.731347
     29006.53	0.12446	1911048.0	1500312.0	3116341.0	0.241979	-0.730986
     29007.01	0.12780	1953325.0	1534076.0	3187179.0	0.241605	-0.731208
     29007.50	0.12394	1905475.0	1496014.0	3108041.0	0.241927	-0.731188
     29007.98	0.13119	1999804.0	1570532.0	3262670.0	0.241635	-0.731131
     29008.46	0.12302	1859230.0	1460057.0	3033195.0	0.241687	-0.731141
     29008.95	0.10532	1595532.0	1253190.0	2604108.0	0.241515	-0.731398
     29009.43	0.12180	1842523.0	1447550.0	3007241.0	0.241263	-0.731151
     29009.92	0.12158	1853459.0	1455671.0	3023781.0	0.241587	-0.731041
     29010.40	0.12679	1919127.0	1507391.0	3131111.0	0.241490	-0.731008
     29010.88	0.12069	1838696.0	1443726.0	2999836.0	0.241829	-0.731330
     29011.37	0.12742	1928253.0	1514759.0	3147214.0	0.241358	-0.731261
     29011.85	0.12197	1823976.0	1432941.0	2976905.0	0.241290	-0.731155
     29012.34	0.14059	2149943.0	1688739.0	3508174.0	0.241459	-0.731114
     29012.82	0.11884	1826020.0	1434452.0	2979319.0	0.241356	-0.730912
     29013.30	0.12770	1943939.0	1526956.0	3172423.0	0.241440	-0.731219
     29013.79	0.12873	1966133.0	1543872.0	3207423.0	0.241775	-0.731174
     29014.27	0.12100	1851442.0	1454561.0	3022044.0	0.241261	-0.731229
     29014.76	0.13297	2037684.0	1600746.0	3326074.0	0.241344	-0.731323
     29015.24	0.13699	2113361.0	1660777.0	3450846.0	0.240994	-0.731334
     29015.72	0.12149	1846317.0	1450841.0	3014743.0	0.241049	-0.731371
     29016.21	0.11691	1777290.0	1396156.0	2900324.0	0.241367	-0.731100
     29016.69	0.11743	1787941.0	1404798.0	2918372.0	0.241171	-0.731132
     29017.18	0.13531	2045561.0	1607367.0	3339131.0	0.241075	-0.731113
     29017.66	0.11327	1699806.0	1335767.0	2774321.0	0.241008	-0.730900
     29018.14	0.14085	2161273.0	1699159.0	3529979.0	0.240564	-0.731158
     29018.63	0.12099	1840761.0	1446714.0	3004839.0	0.240884	-0.730929
     29019.11	0.14093	2138173.0	1680390.0	3491059.0	0.240926	-0.731179
     29019.60	0.11813	1788435.0	1405612.0	2920173.0	0.240868	-0.731170
     29020.08	0.13205	2004498.0	1575258.0	3273645.0	0.240975	-0.731485
     29020.57	0.12871	1972168.0	1550357.0	3220682.0	0.240648	-0.731108
     29021.05	0.12999	2026786.0	1592709.0	3308561.0	0.241015	-0.731077
     29021.53	0.12349	1866176.0	1466705.0	3046999.0	0.240873	-0.731139
     29022.02	0.12536	1902838.0	1495851.0	3108113.0	0.240651	-0.731321
     29022.50	0.12665	1922433.0	1510861.0	3138781.0	0.240912	-0.731155
     29022.99	0.13472	2048213.0	1610105.0	3344980.0	0.240668	-0.731161
     29023.47	0.14281	2181736.0	1715134.0	3563589.0	0.240630	-0.731277
     29023.96	0.10654	1635624.0	1285930.0	2671527.0	0.240542	-0.731168
     29024.44	0.10940	1667458.0	1311182.0	2724250.0	0.240371	-0.731264
     29024.92	0.11617	1779243.0	1399030.0	2906604.0	0.240409	-0.731206
     29025.41	0.12098	1868029.0	1468635.0	3051262.0	0.240550	-0.731222
     29025.89	0.12801	1969166.0	1548377.0	3216874.0	0.240403	-0.731203
     29026.38	0.12149	1849487.0	1454382.0	3021879.0	0.240327	-0.731298
     29026.86	0.12187	1837373.0	1444423.0	3001594.0	0.240627	-0.731434
     29027.35	0.11448	1749642.0	1375198.0	2857511.0	0.240813	-0.731353
     29027.83	0.10589	1617705.0	1271842.0	2642092.0	0.240542	-0.731105
     29028.32	0.11849	1822398.0	1432844.0	2977284.0	0.240492	-0.731350
     29028.80	0.11090	1689302.0	1328881.0	2760621.0	0.239978	-0.731118
     29029.28	0.11942	1845917.0	1451503.0	3015236.0	0.240377	-0.731079
     29029.77	0.13353	2048306.0	1611025.0	3347288.0	0.240142	-0.731280
     29030.25	0.13302	2022579.0	1590348.0	3304106.0	0.240421	-0.731213
     29030.74	0.13736	2114554.0	1663052.0	3454856.0	0.240189	-0.731126
     29031.22	0.12851	1976635.0	1554701.0	3229384.0	0.240113	-0.731008
     29031.71	0.11708	1788090.0	1405904.0	2920765.0	0.240467	-0.731165
     29032.19	0.12276	1852897.0	1457309.0	3026691.0	0.240159	-0.730878
     29032.68	0.12946	1992057.0	1567085.0	3255039.0	0.239951	-0.730987
     29033.16	0.12213	1882501.0	1480841.0	3076393.0	0.239991	-0.731148
     29033.65	0.15799	2427210.0	1908757.0	3965500.0	0.240290	-0.731180
     29034.13	0.13819	2084257.0	1639647.0	3406626.0	0.239931	-0.731241
     29034.62	0.13745	2112683.0	1662045.0	3453194.0	0.239910	-0.731251
     29035.10	0.10030	1534373.0	1207074.0	2507373.0	0.239923	-0.731036
     29035.58	0.11030	1695691.0	1333874.0	2770712.0	0.240003	-0.731017
     29036.07	0.12809	1990669.0	1566449.0	3253936.0	0.239659	-0.731054
     29036.55	0.13773	2106753.0	1657088.0	3442611.0	0.240086	-0.731168
     29037.04	0.13456	2054516.0	1616602.0	3358540.0	0.239714	-0.731180
     29037.52	0.12671	1915138.0	1506757.0	3130307.0	0.239830	-0.731171
     29038.01	0.13945	2097557.0	1650442.0	3428457.0	0.239730	-0.731067
     29038.49	0.14218	2129653.0	1675850.0	3481473.0	0.239639	-0.731135
     29038.98	0.12263	1856532.0	1460841.0	3034955.0	0.239698	-0.731184
     29039.46	0.12954	1941852.0	1528230.0	3175651.0	0.239532	-0.731402
     29039.95	0.12918	1957541.0	1540457.0	3200030.0	0.239610	-0.731081
     29040.43	0.13093	1999427.0	1573247.0	3268864.0	0.239719	-0.731301
     29040.92	0.13228	2006651.0	1578464.0	3279360.0	0.240015	-0.731196
     29041.40	0.11890	1797514.0	1414777.0	2938813.0	0.239433	-0.731034
     29041.89	0.13029	1981682.0	1559466.0	3238850.0	0.239603	-0.730875
     29042.37	0.12316	1862282.0	1465657.0	3043938.0	0.239499	-0.730848
     29042.86	0.12084	1813909.0	1427669.0	2965612.0	0.239441	-0.731040
     29043.34	0.13908	2098809.0	1651726.0	3430512.0	0.239549	-0.730889
     29043.83	0.11991	1813622.0	1427727.0	2965672.0	0.239242	-0.731020
     29044.31	0.12840	1954640.0	1538426.0	3194738.0	0.239446	-0.730745
     29044.80	0.12142	1876639.0	1477024.0	3066746.0	0.239453	-0.730588
     29045.28	0.12404	1876038.0	1476763.0	3067064.0	0.239310	-0.730868
     29045.77	0.11375	1731418.0	1363150.0	2830871.0	0.239143	-0.730786
     29046.25	0.12776	1975401.0	1554990.0	3229167.0	0.239302	-0.730755
     29046.74	0.11290	1727698.0	1360192.0	2824230.0	0.239164	-0.730610
     29047.22	0.11337	1722351.0	1355687.0	2815952.0	0.239382	-0.730992
     29047.71	0.12843	1976050.0	1555865.0	3230387.0	0.239068	-0.730570
     29048.19	0.12151	1838446.0	1447414.0	3006041.0	0.239142	-0.730845
     29048.68	0.12483	1902297.0	1497490.0	3109698.0	0.239272	-0.730735
     29049.16	0.12670	1916784.0	1509053.0	3133908.0	0.239166	-0.730798
     29049.65	0.11945	1819370.0	1432561.0	2974638.0	0.239027	-0.730659
     29050.13	0.13917	2127563.0	1675029.0	3478333.0	0.239147	-0.730723
     29050.62	0.12330	1885490.0	1484580.0	3082255.0	0.239056	-0.730530
     29051.10	0.12707	1916997.0	1509469.0	3135015.0	0.239002	-0.730876
     29051.59	0.13176	1953366.0	1538276.0	3194166.0	0.238892	-0.730664
     29052.08	0.12984	1971804.0	1552633.0	3224154.0	0.238997	-0.730718
     29052.56	0.11957	1811468.0	1426553.0	2962164.0	0.238877	-0.730659
     29053.05	0.12777	1957348.0	1541484.0	3200492.0	0.238845	-0.730559
     29053.53	0.12433	1861308.0	1465902.0	3044310.0	0.238809	-0.730804
     29054.02	0.12204	1845356.0	1452958.0	3016290.0	0.239071	-0.730426
     29054.50	0.12556	1913670.0	1507072.0	3129046.0	0.238854	-0.730559
     29054.99	0.12478	1895677.0	1492691.0	3099286.0	0.238995	-0.730591
     29055.47	0.13265	1997680.0	1573534.0	3266157.0	0.238662	-0.730290
     29055.96	0.12492	1906088.0	1501177.0	3115946.0	0.238804	-0.730283
     29056.44	0.12992	1969340.0	1550834.0	3219510.0	0.238906	-0.730436
     29056.93	0.13430	2047156.0	1612720.0	3346881.0	0.238529	-0.730107
     29057.41	0.11924	1811351.0	1426634.0	2962501.0	0.238755	-0.730716
     29057.90	0.13429	2036104.0	1603942.0	3329785.0	0.238574	-0.730443
     29058.39	0.12452	1881966.0	1482465.0	3077805.0	0.238611	-0.730510
     29058.87	0.14074	2105238.0	1658475.0	3442403.0	0.238530	-0.730271
     29059.36	0.11849	1806198.0	1422934.0	2953746.0	0.238503	-0.730353
     29059.84	0.13235	1981678.0	1561542.0	3241144.0	0.238270	-0.730253
     29060.33	0.14101	2121582.0	1671812.0	3470408.0	0.238254	-0.730364
     29060.81	0.10864	1629307.0	1283326.0	2663713.0	0.238700	-0.730266
     29061.30	0.11081	1676380.0	1320867.0	2741511.0	0.238348	-0.730221
     29061.78	0.13007	1994732.0	1571561.0	3260955.0	0.238440	-0.729951
     29062.27	0.12139	1826966.0	1439445.0	2988701.0	0.238399	-0.730581
     29062.76	0.12811	1931379.0	1521560.0	3158782.0	0.238498	-0.730450
     29063.24	0.11644	1771251.0	1395756.0	2896712.0	0.238250	-0.730140
     29063.73	0.12834	1950163.0	1537027.0	3189960.0	0.238063	-0.730158
     29064.21	0.15461	2344576.0	1847649.0	3834539.0	0.238191	-0.730135
     29064.70	0.090795	1362879.0	1073767.0	2228650.0	0.238426	-0.730223
     29065.18	0.10568	1596368.0	1258004.0	2609984.0	0.238205	-0.729818
     29065.67	0.094044	1409222.0	1111005.0	2305528.0	0.237773	-0.730045
     29066.16	0.11383	1712012.0	1349354.0	2800168.0	0.238043	-0.730053
     29066.64	0.12239	1804768.0	1422438.0	2952083.0	0.238060	-0.730139
     29067.13	0.12300	1837045.0	1447832.0	3004254.0	0.238091	-0.729962
     29067.61	0.12967	1947586.0	1534821.0	3184647.0	0.238177	-0.729928
     29068.10	0.17269	2605580.0	2053506.0	4260923.0	0.238107	-0.729937
     29068.59	0.096378	1451721.0	1144221.0	2374027.0	0.238026	-0.729864
     29069.07	0.11115	1684817.0	1328206.0	2755674.0	0.237828	-0.729833
     29069.56	0.11860	1794945.0	1415169.0	2934987.0	0.237725	-0.729454
     29070.04	0.13957	2105067.0	1659047.0	3442303.0	0.238104	-0.729897
     29070.53	0.12174	1797866.0	1417388.0	2940458.0	0.237785	-0.729750
     29071.01	0.13003	1963996.0	1548246.0	3211540.0	0.237858	-0.729628
     29071.50	0.17202	2578483.0	2032939.0	4217181.0	0.237719	-0.729684
     29071.99	0.14664	2209477.0	1741933.0	3613972.0	0.237760	-0.729812
     29072.47	0.076395	1158588.0	913334.0	1894737.0	0.237856	-0.729734
     29072.96	0.11335	1747108.0	1377463.0	2857014.0	0.237718	-0.729534
     29073.44	0.13716	2094187.0	1651015.0	3424902.0	0.237775	-0.729683
     29073.93	0.13094	1982925.0	1563197.0	3242407.0	0.237840	-0.729583
     29074.42	0.13403	2044044.0	1611386.0	3342189.0	0.237836	-0.729531
     29074.90	0.13599	2056399.0	1621339.0	3362526.0	0.237704	-0.729440
     29075.39	0.14918	2236274.0	1763287.0	3656216.0	0.237631	-0.729249
     29075.87	0.17691	2665239.0	2101805.0	4357795.0	0.237497	-0.729170
     29076.36	0.096375	1457980.0	1149900.0	2384027.0	0.237377	-0.729116
     29076.85	0.11114	1672527.0	1319031.0	2734942.0	0.237438	-0.729213
     29077.33	0.13550	2058456.0	1623114.0	3365663.0	0.237610	-0.729278
     29077.82	0.12310	1870079.0	1474979.0	3057244.0	0.237337	-0.728870
     29078.31	0.13386	2037492.0	1606627.0	3330600.0	0.237583	-0.729016
     29078.79	0.12628	1895378.0	1494977.0	3098157.0	0.237307	-0.728697
     29079.28	0.16003	2402972.0	1895247.0	3928447.0	0.237357	-0.728895
     29079.76	0.10632	1614815.0	1273534.0	2639478.0	0.237425	-0.728785
     29080.25	0.10183	1535839.0	1211229.0	2510349.0	0.237441	-0.728786
     29080.74	0.13617	2017762.0	1591597.0	3298209.0	0.237251	-0.728642
     29081.22	0.12243	1834507.0	1447060.0	2999158.0	0.237242	-0.728798
     29081.71	0.12433	1880834.0	1483542.0	3073973.0	0.237283	-0.728538
     29082.20	0.12755	1917990.0	1513242.0	3135453.0	0.237023	-0.728519
     29082.68	0.12636	1915131.0	1510522.0	3129245.0	0.237331	-0.728336
     29083.17	0.11972	1804389.0	1423257.0	2948913.0	0.237274	-0.728489
     29083.65	0.13280	1994618.0	1573288.0	3259333.0	0.237285	-0.728355
     29084.14	0.11646	1740738.0	1373340.0	2844772.0	0.237063	-0.728237
     29084.63	0.11918	1776322.0	1401299.0	2903105.0	0.237145	-0.728381
     29085.11	0.12153	1801547.0	1421243.0	2943852.0	0.237114	-0.728187
     29085.60	0.12167	1811554.0	1429510.0	2960896.0	0.236853	-0.728160
     29086.09	0.11995	1793178.0	1414889.0	2929963.0	0.236938	-0.727939
     29086.57	0.12957	1942290.0	1532607.0	3173909.0	0.236897	-0.727994
     29087.06	0.12387	1816825.0	1433688.0	2968960.0	0.236840	-0.727962
     29087.55	0.12200	1830755.0	1444843.0	2991473.0	0.236728	-0.727765
     29088.03	0.13014	1920077.0	1515308.0	3138041.0	0.236747	-0.727980
     29088.52	0.13305	1987921.0	1568640.0	3247025.0	0.236880	-0.727530
     29089.01	0.13168	1917928.0	1513353.0	3132713.0	0.236918	-0.727572
     29089.49	0.13054	1967714.0	1552985.0	3214393.0	0.236694	-0.727460
     29089.98	0.11721	1732059.0	1366986.0	2829343.0	0.236703	-0.727436
     29090.47	0.12990	1924550.0	1518827.0	3143854.0	0.236754	-0.727511
     29090.95	0.11456	1683407.0	1328451.0	2749807.0	0.236806	-0.727517
     29091.44	0.11561	1707528.0	1347545.0	2788119.0	0.236762	-0.727083
     29091.93	0.13315	1975420.0	1559336.0	3226549.0	0.236521	-0.727153
     29092.41	0.12071	1798766.0	1419927.0	2937547.0	0.236495	-0.726969
     29092.90	0.13061	1934174.0	1527075.0	3158977.0	0.236326	-0.726894
     29093.39	0.12395	1836139.0	1449283.0	2997916.0	0.236596	-0.726848
     29093.87	0.13305	1973907.0	1557970.0	3223016.0	0.236631	-0.726934
     29094.36	0.12547	1871093.0	1477083.0	3054275.0	0.236454	-0.726473
     29094.85	0.14300	2115308.0	1670006.0	3453666.0	0.236373	-0.726609
     29095.33	0.12310	1804632.0	1424596.0	2945537.0	0.236468	-0.726403
     29095.82	0.12111	1781918.0	1406687.0	2908334.0	0.236453	-0.726343
     29096.31	0.13834	2066244.0	1631280.0	3371954.0	0.236367	-0.726127
     29096.79	0.12656	1854470.0	1463800.0	3026863.0	0.236563	-0.726491
     29097.28	0.12319	1818024.0	1435228.0	2965402.0	0.236426	-0.725689
     29097.77	0.14538	2110507.0	1666467.0	3443931.0	0.236222	-0.725908
     29098.25	0.11773	1727858.0	1363883.0	2818407.0	0.236547	-0.725836
     29098.74	0.11817	1743610.0	1376515.0	2844226.0	0.236403	-0.725736
     29099.23	0.12699	1909090.0	1507454.0	3114306.0	0.236205	-0.725584
     29099.71	0.11467	1703140.0	1345229.0	2779327.0	0.235909	-0.725645
     29100.20	0.12018	1785196.0	1409745.0	2912147.0	0.236119	-0.725482
     29100.69	0.12752	1935446.0	1528182.0	3155925.0	0.236259	-0.725203
     29101.17	0.12794	1885048.0	1488512.0	3074114.0	0.236176	-0.725240
     29101.66	0.12722	1906790.0	1506028.0	3109385.0	0.235945	-0.724949
     29102.15	0.10803	1658478.0	1309567.0	2703627.0	0.236204	-0.724898
     29102.64	0.11639	1734039.0	1369210.0	2826809.0	0.236219	-0.724915
     29103.12	0.10631	1594519.0	1259164.0	2599586.0	0.236124	-0.724904
     29103.61	0.12165	1836978.0	1450675.0	2994035.0	0.236093	-0.724593
     29104.10	0.11423	1715861.0	1354923.0	2796505.0	0.236170	-0.724626
     29104.58	0.11680	1747244.0	1379841.0	2847524.0	0.236071	-0.724482
     29105.07	0.11905	1794202.0	1416976.0	2923873.0	0.236035	-0.724384
     29105.56	0.12954	1946631.0	1537689.0	3170418.0	0.235820	-0.723583
     29106.04	0.12110	1807058.0	1427140.0	2943303.0	0.236028	-0.723860
     29106.53	0.12130	1810948.0	1430437.0	2949435.0	0.235870	-0.723634
     29107.02	0.12050	1821609.0	1438863.0	2966708.0	0.235867	-0.723600
     29107.51	0.12784	1921657.0	1517535.0	3128279.0	0.236101	-0.723396
     29107.99	0.13343	2019540.0	1594722.0	3287249.0	0.236170	-0.723352
     29108.48	0.12167	1840544.0	1453752.0	2996140.0	0.235913	-0.723177
     29108.97	0.13368	1985771.0	1568504.0	3231122.0	0.235885	-0.722707
     29109.46	0.13704	2082459.0	1645124.0	3388040.0	0.235734	-0.722436
     29109.94	0.13463	2052903.0	1621623.0	3340226.0	0.235827	-0.722611
     29110.43	0.13244	1970003.0	1556244.0	3204719.0	0.235760	-0.722349
     29110.92	0.11272	1701305.0	1343636.0	2766828.0	0.236016	-0.722322
     29111.40	0.13345	2030449.0	1604075.0	3301794.0	0.235710	-0.721919
     29111.89	0.12400	1888798.0	1492247.0	3071345.0	0.235658	-0.721833
     29112.38	0.13141	2001083.0	1580766.0	3253324.0	0.235779	-0.721768
     29112.87	0.12736	1938596.0	1531609.0	3151994.0	0.235645	-0.721716
     29113.35	0.13351	2002432.0	1582297.0	3254013.0	0.235485	-0.721011
     29113.84	0.13837	2064312.0	1630568.0	3353631.0	0.235869	-0.721115
     29114.33	0.13926	2096304.0	1656663.0	3406369.0	0.235370	-0.720842
     29114.82	0.13245	1980898.0	1565333.0	3218136.0	0.235452	-0.720704
     29115.30	0.12579	1926899.0	1522313.0	3129095.0	0.235681	-0.720513
     29115.79	0.13075	2001966.0	1581623.0	3249502.0	0.235678	-0.720050
     29116.28	0.13584	2058054.0	1625746.0	3340734.0	0.235794	-0.720224
     29116.77	0.14460	2185906.0	1727347.0	3547230.0	0.235444	-0.719580
     29117.25	0.12993	1938438.0	1531830.0	3145391.0	0.235419	-0.719475
     29117.74	0.12562	1890122.0	1493601.0	3066312.0	0.235451	-0.719286
     29118.23	0.11516	1708864.0	1350332.0	2771765.0	0.235478	-0.719134
     29118.72	0.12743	1917697.0	1515356.0	3108659.0	0.235475	-0.718541
     29119.20	0.12607	1917247.0	1514661.0	3107525.0	0.235699	-0.718635
     29119.69	0.11772	1761942.0	1392164.0	2855199.0	0.235557	-0.718282
     29120.18	0.12583	1890517.0	1493931.0	3062924.0	0.235439	-0.717959
     29120.67	0.12800	1893754.0	1496845.0	3067645.0	0.235202	-0.717551
     29121.15	0.12673	1881614.0	1486861.0	3047031.0	0.235463	-0.717500
     29121.64	0.12189	1821258.0	1439388.0	2948973.0	0.235309	-0.717239
     29122.13	0.12120	1787969.0	1412877.0	2894119.0	0.235452	-0.717053
     29122.62	0.11471	1665439.0	1316786.0	2696133.0	0.234895	-0.716625
     29123.10	0.12120	1756374.0	1388004.0	2841297.0	0.235385	-0.716394
     29123.59	0.11093	1608424.0	1271065.0	2600731.0	0.235400	-0.715937
     29124.08	0.13054	1900700.0	1502473.0	3073174.0	0.235110	-0.715598
     29124.57	0.11683	1695628.0	1339898.0	2740524.0	0.235460	-0.715556
     29125.06	0.12870	1885999.0	1490857.0	3048290.0	0.235107	-0.715230
     29125.54	0.11919	1733886.0	1370367.0	2800697.0	0.235287	-0.714790
