# Diamond Light Source
# Instrument: B18-CORE XAS Date: Wed, 27 Jul 2016 22:05:55 BST
# Ring energy:   3.0
# Ring current - start: 299.6
# Primary slits:  vertical gap=  2.4; horizontal gap= 52.0; vertical offset=  0.4; horizontal offset= -1.0
# Secondary slits:  vertical gap=  3.5; horizontal gap= 23.0; vertical offset=  5.3; horizontal offset= -14.5
# OH Mirror Coating: Pt
# White beam filter: 140um PyC
# Crystal cut: Si(311)
# PostDCM slits:  vertical gap= 18.0; horizontal gap= 28.0; vertical offset= -9.1; horizontal offset= -16.5
# Experimental slits:  vertical gap= 28.6; horizontal gap= 45.0; vertical offset=  5.7; horizontal offset= -17.5
# HR Mirror : out; Y: 37.8; Pitch:  0.3; Coating: Pt
# Mirror 2: Pitch:  2.3; Height: -6.4; Yaw: -1.6; Bend:  0.8;
# I0 Stanford sensitivity: 20 nA/V Offsets: 20 pA
# It Stanford sensitivity: 100 nA/V Offsets: 1 pA
# Iref Stanford sensitivity: 20 nA/V Offsets: 1 pA
#
# Ascii output file name: 'Andrea_Sn//ascii/262876_PtSn_OCO_Abu_2.dat'
# Nexus output file: '/dls/b18/data/2016/sp10306-9/Andrea_Sn//nexus/262876_PtSn_OCO_Abu_2.nxs'
# XML folder and files:
# /dls/b18/data/2016/sp10306-9/xml/Andrea_Sn/
# QEXAFS_Parameters
# Sample_Parameters
# Detector_Parameters
# Output_Parameters
# The contents of these files are also stored in the nexus file.
#
# Sample name: PtSn_OCO_Abu
# Sample description: default sample description
# Additional comments: default additional comments
# command: qexafs_energy 29000.0 30050.0 2094 263.53 qexafs_counterTimer01
#
#
# qexafs_energy	   time	       I0	       It	     Iref	  lnI0It	 lnItIref
     29000.24	0.14872	2327819.0	1852150.0	3853225.0	0.228585	-0.732563
     29000.73	0.14518	2253872.0	1793527.0	3731623.0	0.228466	-0.732659
     29001.21	0.17917	2798253.0	2226576.0	4632632.0	0.228530	-0.732660
     29001.69	0.075579	1182685.0	941271.0	1958401.0	0.228311	-0.732653
     29002.18	0.11813	1847761.0	1470466.0	3058875.0	0.228395	-0.732468
     29002.66	0.12741	1992012.0	1585378.0	3297636.0	0.228322	-0.732383
     29003.14	0.12897	1983604.0	1579316.0	3285265.0	0.227924	-0.732455
     29003.63	0.12179	1861454.0	1481549.0	3082265.0	0.228270	-0.732577
     29004.11	0.12560	1941595.0	1545517.0	3215293.0	0.228151	-0.732560
     29004.59	0.12612	1935421.0	1540710.0	3205349.0	0.228082	-0.732578
     29005.08	0.13353	2062524.0	1641759.0	3414691.0	0.228162	-0.732319
     29005.56	0.11651	1811394.0	1441870.0	2999917.0	0.228156	-0.732644
     29006.05	0.13597	2099063.0	1671115.0	3475863.0	0.228000	-0.732352
     29006.53	0.11343	1738861.0	1384543.0	2880481.0	0.227860	-0.732587
     29007.01	0.13178	2045364.0	1628319.0	3386723.0	0.228028	-0.732315
     29007.50	0.12290	1919348.0	1527757.0	3178466.0	0.228185	-0.732598
     29007.98	0.12863	1994805.0	1588273.0	3302840.0	0.227899	-0.732135
     29008.46	0.12361	1907744.0	1519223.0	3160064.0	0.227722	-0.732393
     29008.95	0.12058	1865483.0	1485823.0	3090671.0	0.227551	-0.732419
     29009.43	0.10803	1681210.0	1338676.0	2784709.0	0.227833	-0.732462
     29009.92	0.11870	1836176.0	1462446.0	3041710.0	0.227575	-0.732309
     29010.40	0.12057	1874738.0	1492708.0	3105145.0	0.227877	-0.732468
     29010.88	0.12073	1839627.0	1464898.0	3047130.0	0.227777	-0.732415
     29011.37	0.14178	2180887.0	1736638.0	3612586.0	0.227781	-0.732473
     29011.85	0.11853	1835329.0	1461864.0	3041085.0	0.227511	-0.732502
     29012.34	0.12787	1985976.0	1581566.0	3289948.0	0.227695	-0.732456
     29012.82	0.12134	1888131.0	1503725.0	3127690.0	0.227642	-0.732349
     29013.30	0.13370	2083057.0	1659306.0	3451017.0	0.227437	-0.732270
     29013.79	0.12302	1919090.0	1528423.0	3179387.0	0.227615	-0.732452
     29014.27	0.13316	2063330.0	1643627.0	3418520.0	0.227416	-0.732302
     29014.76	0.13084	2016273.0	1606215.0	3341025.0	0.227370	-0.732397
     29015.24	0.13284	2040256.0	1625472.0	3381755.0	0.227277	-0.732597
     29015.72	0.11742	1809802.0	1441651.0	2998984.0	0.227428	-0.732485
     29016.21	0.12510	1910812.0	1522155.0	3166582.0	0.227401	-0.732526
     29016.69	0.11228	1738163.0	1384441.0	2880135.0	0.227532	-0.732541
     29017.18	0.13618	2079490.0	1657080.0	3446591.0	0.227066	-0.732329
     29017.66	0.11941	1840606.0	1466388.0	3050123.0	0.227293	-0.732380
     29018.14	0.12668	1952312.0	1555484.0	3235461.0	0.227228	-0.732385
     29018.63	0.13419	2075776.0	1653875.0	3440543.0	0.227214	-0.732508
     29019.11	0.13352	2074690.0	1652961.0	3438610.0	0.227244	-0.732499
     29019.60	0.13217	2027496.0	1615549.0	3360402.0	0.227127	-0.732386
     29020.08	0.12850	1943762.0	1548564.0	3221340.0	0.227297	-0.732469
     29020.57	0.11843	1814505.0	1445822.0	3008042.0	0.227135	-0.732611
     29021.05	0.13148	1974624.0	1573791.0	3274170.0	0.226891	-0.732577
     29021.53	0.12957	1950461.0	1554863.0	3233856.0	0.226678	-0.732288
     29022.02	0.13064	1979805.0	1577839.0	3282864.0	0.226942	-0.732660
     29022.50	0.13034	1974238.0	1573646.0	3272652.0	0.226787	-0.732205
     29022.99	0.12922	1956097.0	1559011.0	3242217.0	0.226900	-0.732206
     29023.47	0.13382	2049031.0	1632897.0	3397286.0	0.227011	-0.732621
     29023.96	0.12244	1870583.0	1491013.0	3101497.0	0.226794	-0.732429
     29024.44	0.11406	1746914.0	1392261.0	2896683.0	0.226922	-0.732637
     29024.92	0.11150	1682102.0	1340797.0	2789294.0	0.226780	-0.732524
     29025.41	0.12607	1923826.0	1533264.0	3189913.0	0.226917	-0.732595
     29025.89	0.12701	1903154.0	1517514.0	3156576.0	0.226439	-0.732414
     29026.38	0.11514	1757226.0	1401185.0	2915137.0	0.226418	-0.732599
     29026.86	0.13275	2015272.0	1607098.0	3342765.0	0.226324	-0.732368
     29027.35	0.12375	1861395.0	1483910.0	3087506.0	0.226646	-0.732683
     29027.83	0.096306	1441093.0	1148727.0	2390072.0	0.226747	-0.732669
     29028.32	0.11123	1685100.0	1343598.0	2795125.0	0.226474	-0.732526
     29028.80	0.10927	1633853.0	1302853.0	2709853.0	0.226385	-0.732338
     29029.28	0.12883	1926661.0	1535869.0	3195387.0	0.226692	-0.732612
     29029.77	0.12178	1839427.0	1466599.0	3050856.0	0.226508	-0.732476
     29030.25	0.13837	2080709.0	1658826.0	3450774.0	0.226599	-0.732488
     29030.74	0.13119	1973575.0	1573853.0	3274014.0	0.226320	-0.732490
     29031.22	0.14657	2186139.0	1743933.0	3628236.0	0.225994	-0.732604
     29031.71	0.10791	1643654.0	1310391.0	2726389.0	0.226596	-0.732652
     29032.19	0.12311	1880873.0	1500225.0	3120945.0	0.226121	-0.732521
     29032.68	0.11463	1730955.0	1380634.0	2872151.0	0.226130	-0.732518
     29033.16	0.14196	2115469.0	1687135.0	3509924.0	0.226245	-0.732563
     29033.65	0.14165	2166239.0	1727813.0	3593552.0	0.226136	-0.732285
     29034.13	0.12222	1867259.0	1489272.0	3098010.0	0.226184	-0.732473
     29034.62	0.16520	2557967.0	2039858.0	4243513.0	0.226333	-0.732511
     29035.10	0.10328	1582936.0	1262769.0	2626873.0	0.225974	-0.732487
     29035.58	0.10013	1520577.0	1212801.0	2523079.0	0.226157	-0.732547
     29036.07	0.13743	2110139.0	1682737.0	3500414.0	0.226332	-0.732460
     29036.55	0.13207	2029985.0	1618903.0	3368057.0	0.226280	-0.732587
     29037.04	0.13622	2073079.0	1653483.0	3439281.0	0.226151	-0.732378
     29037.52	0.13095	2018738.0	1610618.0	3349461.0	0.225855	-0.732181
     29038.01	0.13144	2055311.0	1639559.0	3410490.0	0.226000	-0.732429
     29038.49	0.14394	2199157.0	1754353.0	3649782.0	0.225974	-0.732567
     29038.98	0.11675	1815045.0	1447614.0	3010826.0	0.226194	-0.732298
     29039.46	0.13047	2038877.0	1626470.0	3382552.0	0.225987	-0.732218
     29039.95	0.12517	1916966.0	1529459.0	3182086.0	0.225830	-0.732623
     29040.43	0.13090	2025748.0	1616154.0	3361864.0	0.225890	-0.732446
     29040.92	0.13263	2045556.0	1631660.0	3393182.0	0.226072	-0.732170
     29041.40	0.12953	2017303.0	1609486.0	3347110.0	0.225847	-0.732182
     29041.89	0.12788	1968517.0	1570625.0	3267151.0	0.225807	-0.732445
     29042.37	0.11997	1847909.0	1474359.0	3066415.0	0.225831	-0.732286
     29042.86	0.12648	1951600.0	1557325.0	3238753.0	0.225680	-0.732219
     29043.34	0.12081	1896661.0	1513522.0	3147799.0	0.225656	-0.732264
     29043.83	0.12380	1929542.0	1539582.0	3201678.0	0.225772	-0.732164
     29044.31	0.13466	2088791.0	1666516.0	3465887.0	0.225850	-0.732233
     29044.80	0.11823	1832802.0	1462131.0	3041392.0	0.225951	-0.732420
     29045.28	0.12701	1952438.0	1558205.0	3240433.0	0.225544	-0.732172
     29045.77	0.11897	1830650.0	1461217.0	3038457.0	0.225401	-0.732080
     29046.25	0.11710	1800665.0	1437289.0	2989124.0	0.225397	-0.732222
     29046.74	0.11721	1812702.0	1446440.0	3008495.0	0.225713	-0.732335
     29047.22	0.12134	1885557.0	1504625.0	3128995.0	0.225680	-0.732168
     29047.71	0.12322	1916719.0	1529761.0	3181161.0	0.225503	-0.732135
     29048.19	0.12796	1968962.0	1571620.0	3267214.0	0.225400	-0.731831
     29048.68	0.11030	1694716.0	1352734.0	2812624.0	0.225387	-0.731990
     29049.16	0.13096	2012819.0	1606772.0	3340930.0	0.225309	-0.732022
     29049.65	0.12157	1878298.0	1499311.0	3117596.0	0.225360	-0.732057
     29050.13	0.12951	1992698.0	1590827.0	3307834.0	0.225235	-0.732040
     29050.62	0.12499	1928422.0	1539176.0	3200353.0	0.225455	-0.732014
     29051.10	0.13723	2129433.0	1699762.0	3534122.0	0.225368	-0.731977
     29051.59	0.13159	2021167.0	1613660.0	3354288.0	0.225170	-0.731735
     29052.08	0.12400	1906850.0	1522409.0	3164906.0	0.225159	-0.731829
     29052.56	0.13000	2008779.0	1604112.0	3335047.0	0.224957	-0.731916
     29053.05	0.11800	1831621.0	1462351.0	3040504.0	0.225156	-0.731978
     29053.53	0.12430	1920563.0	1533061.0	3187277.0	0.225352	-0.731901
     29054.02	0.13250	2054496.0	1640274.0	3409166.0	0.225167	-0.731604
     29054.50	0.12465	1928959.0	1540568.0	3202088.0	0.224829	-0.731652
     29054.99	0.11895	1857385.0	1482923.0	3082565.0	0.225154	-0.731747
     29055.47	0.13145	2046368.0	1634132.0	3396614.0	0.224955	-0.731667
     29055.96	0.12299	1906695.0	1522785.0	3164864.0	0.224830	-0.731569
     29056.44	0.12988	2019089.0	1612210.0	3351097.0	0.225041	-0.731682
     29056.93	0.13854	2185575.0	1744824.0	3626358.0	0.225225	-0.731575
     29057.41	0.11802	1861201.0	1486129.0	3088814.0	0.225047	-0.731612
     29057.90	0.13367	2096552.0	1674209.0	3479277.0	0.224953	-0.731484
     29058.39	0.13047	2022818.0	1615377.0	3357487.0	0.224923	-0.731624
     29058.87	0.12709	1980470.0	1581514.0	3287426.0	0.224952	-0.731722
     29059.36	0.12647	1943522.0	1552511.0	3227058.0	0.224628	-0.731697
     29059.84	0.13897	2131166.0	1702278.0	3538066.0	0.224702	-0.731613
     29060.33	0.12752	1983894.0	1584808.0	3293867.0	0.224598	-0.731599
     29060.81	0.12642	1968465.0	1572464.0	3267627.0	0.224610	-0.731420
     29061.30	0.10588	1663106.0	1328370.0	2760202.0	0.224734	-0.731351
     29061.78	0.13567	2097232.0	1675385.0	3482267.0	0.224575	-0.731641
     29062.27	0.11664	1808716.0	1444516.0	3002091.0	0.224843	-0.731535
     29062.76	0.13275	2064550.0	1649371.0	3427135.0	0.224518	-0.731331
     29063.24	0.11323	1754785.0	1401854.0	2913250.0	0.224551	-0.731474
     29063.73	0.13185	2048208.0	1636421.0	3399985.0	0.224454	-0.731259
     29064.21	0.15484	2378632.0	1900335.0	3949251.0	0.224495	-0.731496
     29064.70	0.10354	1611021.0	1287084.0	2673821.0	0.224489	-0.731129
     29065.18	0.096710	1451505.0	1159715.0	2409393.0	0.224427	-0.731201
     29065.67	0.10376	1595997.0	1275168.0	2649720.0	0.224421	-0.731376
     29066.16	0.10256	1581870.0	1264194.0	2626329.0	0.224173	-0.731152
     29066.64	0.12575	1939002.0	1549504.0	3219212.0	0.224239	-0.731202
     29067.13	0.10661	1653732.0	1321240.0	2744938.0	0.224464	-0.731188
     29067.61	0.13752	2125268.0	1698203.0	3527725.0	0.224327	-0.731083
     29068.10	0.17806	2765504.0	2210107.0	4591393.0	0.224182	-0.731143
     29068.59	0.096901	1473717.0	1177875.0	2447284.0	0.224076	-0.731267
     29069.07	0.10888	1666154.0	1331621.0	2766480.0	0.224121	-0.731179
     29069.56	0.11536	1754589.0	1402919.0	2913620.0	0.223680	-0.730841
     29070.04	0.14063	2180914.0	1742709.0	3619506.0	0.224303	-0.730897
     29070.53	0.11942	1843664.0	1473438.0	3060718.0	0.224156	-0.731051
     29071.01	0.14237	2193788.0	1753571.0	3642405.0	0.223975	-0.730990
     29071.50	0.14509	2250746.0	1799065.0	3735946.0	0.223995	-0.730734
     29071.99	0.18115	2809804.0	2245967.0	4663938.0	0.223979	-0.730724
     29072.47	0.080542	1244136.0	994749.0	2065823.0	0.223706	-0.730794
     29072.96	0.097096	1509408.0	1206538.0	2505190.0	0.223962	-0.730609
     29073.44	0.13333	2068841.0	1653887.0	3434190.0	0.223860	-0.730653
     29073.93	0.13487	2069624.0	1654660.0	3435195.0	0.223771	-0.730478
     29074.42	0.13187	2021851.0	1616133.0	3355947.0	0.223977	-0.730698
     29074.90	0.13760	2107008.0	1684729.0	3497158.0	0.223664	-0.730346
     29075.39	0.12614	1934371.0	1546614.0	3210385.0	0.223714	-0.730323
     29075.87	0.16472	2520097.0	2014212.0	4182001.0	0.224069	-0.730562
     29076.36	0.12065	1862455.0	1489003.0	3090917.0	0.223789	-0.730361
     29076.85	0.11024	1722251.0	1377265.0	2858363.0	0.223533	-0.730149
     29077.33	0.13338	2068842.0	1653687.0	3432551.0	0.223982	-0.730296
     29077.82	0.12671	1948407.0	1557858.0	3233866.0	0.223700	-0.730367
     29078.31	0.12573	1946089.0	1555794.0	3228739.0	0.223836	-0.730106
     29078.79	0.12527	1920099.0	1535779.0	3187214.0	0.223339	-0.730109
     29079.28	0.13578	2087766.0	1670164.0	3465032.0	0.223173	-0.729800
     29079.76	0.14064	2168082.0	1733627.0	3596765.0	0.223627	-0.729819
     29080.25	0.10474	1629515.0	1302871.0	2703687.0	0.223712	-0.730046
     29080.74	0.13077	2004999.0	1603321.0	3326618.0	0.223566	-0.729879
     29081.22	0.12332	1890336.0	1511523.0	3135694.0	0.223637	-0.729733
     29081.71	0.12279	1870239.0	1495652.0	3103095.0	0.223504	-0.729838
     29082.20	0.13062	2010105.0	1607438.0	3335237.0	0.223545	-0.729902
     29082.68	0.12855	1955213.0	1564068.0	3244454.0	0.223209	-0.729657
     29083.17	0.11115	1698596.0	1358899.0	2818420.0	0.223127	-0.729502
     29083.65	0.12017	1812384.0	1449761.0	3006073.0	0.223244	-0.729236
     29084.14	0.12123	1848388.0	1478613.0	3065881.0	0.223209	-0.729230
     29084.63	0.12157	1853182.0	1482155.0	3074020.0	0.223407	-0.729489
     29085.11	0.11953	1860082.0	1488006.0	3085184.0	0.223184	-0.729174
     29085.60	0.12357	1880546.0	1504331.0	3119850.0	0.223214	-0.729437
     29086.09	0.11926	1838330.0	1470778.0	3049198.0	0.223066	-0.729087
     29086.57	0.13039	2011204.0	1609040.0	3336172.0	0.223096	-0.729186
     29087.06	0.12000	1827354.0	1461985.0	3031058.0	0.223074	-0.729117
     29087.55	0.12195	1868729.0	1494975.0	3098988.0	0.223149	-0.728966
     29088.03	0.12285	1859148.0	1487529.0	3083699.0	0.223002	-0.729013
     29088.52	0.13492	2061384.0	1649285.0	3418712.0	0.223036	-0.728922
     29089.01	0.12314	1889851.0	1512014.0	3132094.0	0.223055	-0.728259
     29089.49	0.12335	1862536.0	1490658.0	3088878.0	0.222721	-0.728590
     29089.98	0.15221	2336465.0	1869324.0	3872950.0	0.223062	-0.728440
     29090.47	0.12787	1972621.0	1578477.0	3270738.0	0.222903	-0.728555
     29090.95	0.11970	1845698.0	1476329.0	3059003.0	0.223299	-0.728530
     29091.44	0.11833	1812807.0	1450809.0	3006374.0	0.222755	-0.728613
     29091.93	0.13230	2029074.0	1623461.0	3362472.0	0.223019	-0.728116
     29092.41	0.12302	1889280.0	1511803.0	3130914.0	0.222893	-0.728022
     29092.90	0.12841	1989450.0	1591851.0	3297242.0	0.222961	-0.728189
     29093.39	0.12165	1855618.0	1484391.0	3075157.0	0.223213	-0.728351
     29093.87	0.12716	1956582.0	1565980.0	3242291.0	0.222687	-0.727768
     29094.36	0.13185	2039484.0	1632029.0	3379645.0	0.222873	-0.727947
     29094.85	0.12808	1943694.0	1555383.0	3220794.0	0.222868	-0.727906
     29095.33	0.13774	2124675.0	1700398.0	3520711.0	0.222757	-0.727801
     29095.82	0.10916	1669321.0	1336212.0	2765603.0	0.222578	-0.727420
     29096.31	0.14320	2191301.0	1754136.0	3629873.0	0.222519	-0.727221
     29096.79	0.13405	2044153.0	1636134.0	3385649.0	0.222647	-0.727209
     29097.28	0.12408	1918618.0	1535793.0	3177964.0	0.222558	-0.727194
     29097.77	0.13003	2014319.0	1612373.0	3336382.0	0.222574	-0.727180
     29098.25	0.12188	1859157.0	1488262.0	3079888.0	0.222514	-0.727284
     29098.74	0.12356	1920301.0	1537068.0	3180084.0	0.222605	-0.727031
     29099.23	0.12665	1945756.0	1557619.0	3222668.0	0.222492	-0.727051
     29099.71	0.12222	1881731.0	1506286.0	3115802.0	0.222545	-0.726840
     29100.20	0.12392	1911173.0	1529683.0	3163996.0	0.222657	-0.726775
     29100.69	0.12441	1900248.0	1521198.0	3146224.0	0.222486	-0.726705
     29101.17	0.12270	1877764.0	1503895.0	3109639.0	0.222023	-0.726448
     29101.66	0.12341	1896400.0	1518204.0	3138758.0	0.222429	-0.726299
     29102.15	0.11213	1711343.0	1369877.0	2832333.0	0.222557	-0.726380
     29102.64	0.11615	1788096.0	1431683.0	2959748.0	0.222301	-0.726253
     29103.12	0.11911	1812396.0	1451405.0	3000024.0	0.222118	-0.726088
     29103.61	0.10961	1687502.0	1351058.0	2793071.0	0.222361	-0.726254
     29104.10	0.11579	1778211.0	1423988.0	2941650.0	0.222146	-0.725509
     29104.58	0.11285	1712177.0	1370971.0	2832179.0	0.222246	-0.725527
     29105.07	0.12238	1851559.0	1482810.0	3063567.0	0.222089	-0.725641
     29105.56	0.12537	1916718.0	1534625.0	3169626.0	0.222328	-0.725328
     29106.04	0.12586	1904935.0	1525300.0	3150571.0	0.222257	-0.725393
     29106.53	0.12479	1886897.0	1510855.0	3120121.0	0.222258	-0.725196
     29107.02	0.11897	1817049.0	1455195.0	3004432.0	0.222074	-0.724949
     29107.51	0.12024	1817213.0	1455144.0	3005168.0	0.222199	-0.725229
     29107.99	0.13011	1975180.0	1582068.0	3265282.0	0.221927	-0.724613
     29108.48	0.13536	2028758.0	1624881.0	3353422.0	0.221989	-0.724547
     29108.97	0.13258	2016939.0	1615856.0	3334133.0	0.221716	-0.724348
     29109.46	0.13402	2030478.0	1626188.0	3355643.0	0.222033	-0.724405
     29109.94	0.12751	1938571.0	1552514.0	3203052.0	0.222076	-0.724229
     29110.43	0.13604	2048397.0	1640678.0	3383234.0	0.221948	-0.723722
     29110.92	0.12489	1897222.0	1519642.0	3133843.0	0.221916	-0.723785
     29111.40	0.12225	1827263.0	1463950.0	3018016.0	0.221681	-0.723461
     29111.89	0.13257	2022631.0	1620457.0	3340073.0	0.221691	-0.723284
     29112.38	0.12254	1851085.0	1482698.0	3055337.0	0.221909	-0.723026
     29112.87	0.12306	1841031.0	1474950.0	3039361.0	0.221702	-0.723023
     29113.35	0.14520	2226298.0	1783092.0	3673474.0	0.221991	-0.722789
     29113.84	0.14044	2119072.0	1697533.0	3495979.0	0.221802	-0.722437
     29114.33	0.13775	2086398.0	1671674.0	3442188.0	0.221614	-0.722282
     29114.82	0.13049	1990269.0	1594330.0	3282872.0	0.221816	-0.722265
     29115.30	0.12269	1843736.0	1477283.0	3040615.0	0.221589	-0.721855
     29115.79	0.13203	2013331.0	1612789.0	3319530.0	0.221826	-0.721858
     29116.28	0.12556	1893358.0	1516918.0	3122150.0	0.221671	-0.721841
     29116.77	0.14417	2163126.0	1733304.0	3565791.0	0.221525	-0.721356
     29117.25	0.12147	1842740.0	1475847.0	3035257.0	0.222022	-0.721064
     29117.74	0.13049	1965855.0	1575051.0	3238679.0	0.221640	-0.720878
     29118.23	0.11763	1789331.0	1433713.0	2947042.0	0.221574	-0.720534
     29118.72	0.12655	1911203.0	1530830.0	3146908.0	0.221923	-0.720610
     29119.20	0.11930	1792811.0	1436511.0	2951427.0	0.221568	-0.720072
     29119.69	0.12032	1834698.0	1469957.0	3019657.0	0.221647	-0.719910
     29120.18	0.12767	1951280.0	1563723.0	3211217.0	0.221416	-0.719580
     29120.67	0.12883	1967529.0	1576596.0	3236238.0	0.221510	-0.719143
     29121.15	0.11725	1749834.0	1401997.0	2878410.0	0.221623	-0.719340
     29121.64	0.12497	1862912.0	1492532.0	3063419.0	0.221667	-0.719058
     29122.13	0.12441	1869713.0	1498136.0	3073831.0	0.221563	-0.718703
     29122.62	0.10868	1588459.0	1273515.0	2611980.0	0.220984	-0.718328
     29123.10	0.13486	2043686.0	1637287.0	3357994.0	0.221714	-0.718303
     29123.59	0.11277	1691825.0	1355954.0	2779590.0	0.221303	-0.717798
     29124.08	0.11613	1745633.0	1398955.0	2866058.0	0.221392	-0.717212
     29124.57	0.11993	1778312.0	1425296.0	2919132.0	0.221285	-0.716907
     29125.06	0.13025	1956628.0	1568154.0	3211113.0	0.221323	-0.716718
     29125.54	0.11262	1674909.0	1342274.0	2748281.0	0.221394	-0.716610
