# Diamond Light Source
# Instrument: B18-CORE XAS Date: Wed, 27 Jul 2016 23:08:11 BST
# Ring energy:   3.0
# Ring current - start: 298.9
# Primary slits:  vertical gap=  2.4; horizontal gap= 52.0; vertical offset=  0.4; horizontal offset= -1.0
# Secondary slits:  vertical gap=  3.5; horizontal gap= 23.0; vertical offset=  5.3; horizontal offset= -14.5
# OH Mirror Coating: Pt
# White beam filter: 140um PyC
# Crystal cut: Si(311)
# PostDCM slits:  vertical gap= 18.0; horizontal gap= 28.0; vertical offset= -9.1; horizontal offset= -16.5
# Experimental slits:  vertical gap= 28.6; horizontal gap= 45.0; vertical offset=  5.7; horizontal offset= -17.5
# HR Mirror : out; Y: 37.8; Pitch:  0.3; Coating: Pt
# Mirror 2: Pitch:  2.3; Height: -6.4; Yaw: -1.6; Bend:  0.8;
# I0 Stanford sensitivity: 20 nA/V Offsets: 20 pA
# It Stanford sensitivity: 100 nA/V Offsets: 1 pA
# Iref Stanford sensitivity: 20 nA/V Offsets: 1 pA
#
# Ascii output file name: 'Andrea_Sn//ascii/262887_PtSn_OCH_Abu_3.dat'
# Nexus output file: '/dls/b18/data/2016/sp10306-9/Andrea_Sn//nexus/262887_PtSn_OCH_Abu_3.nxs'
# XML folder and files:
# /dls/b18/data/2016/sp10306-9/xml/Andrea_Sn/
# QEXAFS_Parameters
# Sample_Parameters
# Detector_Parameters
# Output_Parameters
# The contents of these files are also stored in the nexus file.
#
# Sample name: PtSn_OCH_Abu
# Sample description: default sample description
# Additional comments: default additional comments
# command: qexafs_energy 29000.0 30050.0 2094 263.53 qexafs_counterTimer01
#
#
# qexafs_energy	   time	       I0	       It	     Iref	  lnI0It	 lnItIref
     29000.24	0.14827	2193359.0	1954104.0	4060301.0	0.115502	-0.731325
     29000.73	0.17598	2657527.0	2367975.0	4920139.0	0.115361	-0.731302
     29001.21	0.13255	1954043.0	1741395.0	3618448.0	0.115214	-0.731359
     29001.69	0.084925	1264501.0	1126992.0	2341659.0	0.115125	-0.731308
     29002.18	0.12186	1825333.0	1627055.0	3379531.0	0.114991	-0.730965
     29002.66	0.13363	2008532.0	1790188.0	3718907.0	0.115083	-0.731109
     29003.14	0.12510	1874473.0	1670109.0	3471103.0	0.115439	-0.731584
     29003.63	0.13333	1986771.0	1770367.0	3677969.0	0.115324	-0.731174
     29004.11	0.12703	1889997.0	1684206.0	3499298.0	0.115281	-0.731268
     29004.59	0.12143	1812211.0	1615506.0	3356804.0	0.114899	-0.731341
     29005.08	0.12345	1858660.0	1656699.0	3441871.0	0.115029	-0.731188
     29005.56	0.12413	1848300.0	1647659.0	3422792.0	0.114911	-0.731101
     29006.05	0.13115	1971724.0	1757609.0	3651907.0	0.114954	-0.731295
     29006.53	0.12550	1883432.0	1678805.0	3487984.0	0.115013	-0.731242
     29007.01	0.12386	1871377.0	1668459.0	3466486.0	0.114774	-0.731241
     29007.50	0.12420	1897116.0	1691214.0	3514053.0	0.114888	-0.731323
     29007.98	0.13143	1965213.0	1752302.0	3641223.0	0.114670	-0.731389
     29008.46	0.12404	1849461.0	1649212.0	3426237.0	0.114597	-0.731165
     29008.95	0.10124	1506070.0	1343099.0	2790939.0	0.114524	-0.731398
     29009.43	0.12477	1845462.0	1645646.0	3419737.0	0.114597	-0.731431
     29009.92	0.12144	1809180.0	1613452.0	3351851.0	0.114498	-0.731137
     29010.40	0.12097	1808775.0	1612907.0	3351230.0	0.114612	-0.731289
     29010.88	0.11549	1715583.0	1529763.0	3178080.0	0.114640	-0.731164
     29011.37	0.14088	2086985.0	1860779.0	3866975.0	0.114725	-0.731477
     29011.85	0.12417	1839918.0	1640776.0	3409055.0	0.114552	-0.731266
     29012.34	0.11803	1740674.0	1552587.0	3225761.0	0.114350	-0.731246
     29012.82	0.13392	1987319.0	1772155.0	3682474.0	0.114590	-0.731388
     29013.30	0.12741	1871504.0	1669120.0	3467733.0	0.114446	-0.731205
     29013.79	0.12425	1864026.0	1662328.0	3454233.0	0.114520	-0.731381
     29014.27	0.13370	2029488.0	1810230.0	3760640.0	0.114330	-0.731135
     29014.76	0.13337	1995897.0	1779782.0	3698406.0	0.114603	-0.731411
     29015.24	0.12594	1912312.0	1705689.0	3542725.0	0.114344	-0.730927
     29015.72	0.11077	1649549.0	1471433.0	3057499.0	0.114265	-0.731361
     29016.21	0.13510	2026119.0	1806695.0	3754279.0	0.114623	-0.731397
     29016.69	0.11546	1761918.0	1571745.0	3265875.0	0.114217	-0.731341
     29017.18	0.12800	1924542.0	1716532.0	3567016.0	0.114382	-0.731423
     29017.66	0.12109	1776222.0	1584306.0	3291922.0	0.114342	-0.731325
     29018.14	0.13418	2018194.0	1799736.0	3739281.0	0.114563	-0.731253
     29018.63	0.12651	1902821.0	1697382.0	3526733.0	0.114250	-0.731285
     29019.11	0.13715	2038548.0	1818409.0	3778980.0	0.114276	-0.731492
     29019.60	0.12931	1950664.0	1740034.0	3616066.0	0.114265	-0.731482
     29020.08	0.12310	1825506.0	1628569.0	3384570.0	0.114155	-0.731525
     29020.57	0.13013	1946894.0	1736959.0	3608697.0	0.114099	-0.731211
     29021.05	0.12880	1920943.0	1714271.0	3562170.0	0.113828	-0.731382
     29021.53	0.11843	1797880.0	1603300.0	3330968.0	0.114544	-0.731199
     29022.02	0.12488	1846784.0	1647881.0	3424438.0	0.113956	-0.731447
     29022.50	0.13945	2103433.0	1876953.0	3899142.0	0.113921	-0.731107
     29022.99	0.12998	1952598.0	1742634.0	3620502.0	0.113763	-0.731215
     29023.47	0.14192	2146800.0	1915424.0	3979048.0	0.114039	-0.731104
     29023.96	0.11093	1674619.0	1493883.0	3103854.0	0.114207	-0.731266
     29024.44	0.10716	1608491.0	1435008.0	2981574.0	0.114126	-0.731281
     29024.92	0.11828	1780350.0	1589013.0	3301055.0	0.113697	-0.731129
     29025.41	0.12308	1829439.0	1632245.0	3391256.0	0.114053	-0.731244
     29025.89	0.12534	1880422.0	1678160.0	3486556.0	0.113798	-0.731216
     29026.38	0.12218	1850860.0	1651732.0	3432426.0	0.113826	-0.731443
     29026.86	0.12449	1882188.0	1679924.0	3490516.0	0.113686	-0.731301
     29027.35	0.12033	1824609.0	1628208.0	3383031.0	0.113886	-0.731292
     29027.83	0.096241	1435600.0	1281351.0	2661453.0	0.113668	-0.730957
     29028.32	0.10901	1658310.0	1480447.0	3075677.0	0.113455	-0.731181
     29028.80	0.11097	1709587.0	1526184.0	3170841.0	0.113481	-0.731226
     29029.28	0.12559	1885007.0	1682515.0	3495876.0	0.113642	-0.731294
     29029.77	0.13374	2036411.0	1816973.0	3775668.0	0.114017	-0.731405
     29030.25	0.13602	2108433.0	1882251.0	3909848.0	0.113477	-0.731030
     29030.74	0.13441	2042469.0	1823265.0	3788311.0	0.113531	-0.731291
     29031.22	0.12301	1866502.0	1666662.0	3463002.0	0.113243	-0.731313
     29031.71	0.11742	1798008.0	1605131.0	3334619.0	0.113474	-0.731153
     29032.19	0.12014	1833599.0	1636796.0	3401236.0	0.113540	-0.731398
     29032.68	0.12565	1911460.0	1706256.0	3544919.0	0.113566	-0.731214
     29033.16	0.13568	2052959.0	1832545.0	3807999.0	0.113576	-0.731398
     29033.65	0.15156	2312935.0	2064743.0	4290061.0	0.113512	-0.731295
     29034.13	0.13413	2040556.0	1822235.0	3785322.0	0.113159	-0.731067
     29034.62	0.14870	2279834.0	2035212.0	4229243.0	0.113503	-0.731423
     29035.10	0.085256	1293596.0	1155221.0	2399984.0	0.113134	-0.731170
     29035.58	0.12426	1910151.0	1705829.0	3543551.0	0.113131	-0.731078
     29036.07	0.13704	2131214.0	1903105.0	3953834.0	0.113205	-0.731199
     29036.55	0.12360	1904215.0	1700153.0	3531898.0	0.113352	-0.731117
     29037.04	0.13780	2109389.0	1884049.0	3914718.0	0.112975	-0.731320
     29037.52	0.12975	1983999.0	1771833.0	3681601.0	0.113100	-0.731333
     29038.01	0.12925	1971673.0	1760538.0	3656803.0	0.113263	-0.730970
     29038.49	0.14975	2294236.0	2048400.0	4255313.0	0.113341	-0.731109
     29038.98	0.12469	1886923.0	1685230.0	3500943.0	0.113045	-0.731130
     29039.46	0.13280	2045268.0	1826887.0	3795017.0	0.112915	-0.731075
     29039.95	0.12290	1880557.0	1679087.0	3487873.0	0.113318	-0.731042
     29040.43	0.12992	2000203.0	1786209.0	3710615.0	0.113153	-0.731102
     29040.92	0.13419	2087539.0	1864412.0	3873177.0	0.113040	-0.731129
     29041.40	0.11745	1787317.0	1596396.0	3315904.0	0.112967	-0.730982
     29041.89	0.13048	2030161.0	1813633.0	3766531.0	0.112783	-0.730822
     29042.37	0.12408	1924397.0	1718805.0	3569833.0	0.112983	-0.730890
     29042.86	0.12702	1923079.0	1718044.0	3568496.0	0.112741	-0.730958
     29043.34	0.12041	1843008.0	1646413.0	3420069.0	0.112800	-0.731062
     29043.83	0.12716	1923539.0	1718643.0	3570598.0	0.112632	-0.731198
     29044.31	0.13305	2042106.0	1824237.0	3789033.0	0.112820	-0.730949
     29044.80	0.12092	1845354.0	1648192.0	3423156.0	0.112992	-0.730884
     29045.28	0.12250	1865442.0	1666599.0	3462427.0	0.112713	-0.731185
     29045.77	0.11964	1793367.0	1602391.0	3327995.0	0.112598	-0.730873
     29046.25	0.11534	1728410.0	1543993.0	3207684.0	0.112830	-0.731177
     29046.74	0.11902	1806891.0	1613990.0	3352129.0	0.112898	-0.730886
     29047.22	0.12245	1854351.0	1656978.0	3441306.0	0.112539	-0.730856
     29047.71	0.12545	1891293.0	1690070.0	3510258.0	0.112491	-0.730920
     29048.19	0.12265	1843627.0	1647624.0	3422466.0	0.112401	-0.731027
     29048.68	0.11751	1755848.0	1568539.0	3258496.0	0.112807	-0.731121
     29049.16	0.12958	1958153.0	1749791.0	3633582.0	0.112505	-0.730723
     29049.65	0.13052	1948576.0	1741245.0	3616503.0	0.112498	-0.730907
     29050.13	0.12402	1860312.0	1662423.0	3452666.0	0.112468	-0.730871
     29050.62	0.12942	1930277.0	1725120.0	3583066.0	0.112367	-0.730922
     29051.10	0.13498	2023123.0	1807708.0	3754208.0	0.112583	-0.730818
     29051.59	0.12827	1918060.0	1714198.0	3559760.0	0.112369	-0.730748
     29052.08	0.12456	1858140.0	1660500.0	3448441.0	0.112457	-0.730803
     29052.56	0.12951	1923517.0	1719238.0	3571119.0	0.112274	-0.730998
     29053.05	0.11190	1670720.0	1493122.0	3100115.0	0.112385	-0.730570
     29053.53	0.12135	1793504.0	1603163.0	3328979.0	0.112193	-0.730687
     29054.02	0.13625	2021695.0	1806573.0	3750808.0	0.112505	-0.730540
     29054.50	0.12118	1800091.0	1609133.0	3340844.0	0.112142	-0.730528
     29054.99	0.12563	1872276.0	1672866.0	3474141.0	0.112616	-0.730809
     29055.47	0.12652	1880755.0	1680796.0	3490045.0	0.112406	-0.730647
     29055.96	0.12307	1878483.0	1678854.0	3484715.0	0.112353	-0.730275
     29056.44	0.14392	2168945.0	1938425.0	4024655.0	0.112365	-0.730563
     29056.93	0.12550	1863798.0	1666106.0	3459646.0	0.112127	-0.730677
     29057.41	0.12357	1818871.0	1626041.0	3376493.0	0.112068	-0.730689
     29057.90	0.12838	1898411.0	1696902.0	3523042.0	0.112213	-0.730521
     29058.39	0.12941	1911788.0	1708816.0	3547516.0	0.112238	-0.730447
     29058.87	0.13079	1925213.0	1720940.0	3572706.0	0.112166	-0.730453
     29059.36	0.13100	1982257.0	1772156.0	3678838.0	0.112039	-0.730400
     29059.84	0.12532	1838567.0	1644063.0	3413230.0	0.111816	-0.730488
     29060.33	0.14101	2082247.0	1861682.0	3865404.0	0.111967	-0.730586
     29060.81	0.11505	1684061.0	1505634.0	3125657.0	0.111994	-0.730430
     29061.30	0.11290	1676401.0	1498960.0	3111466.0	0.111878	-0.730322
     29061.78	0.12257	1796591.0	1606019.0	3334410.0	0.112133	-0.730537
     29062.27	0.12059	1796097.0	1605959.0	3333080.0	0.111895	-0.730176
     29062.76	0.13456	1977056.0	1767601.0	3669130.0	0.111986	-0.730331
     29063.24	0.11415	1678804.0	1500916.0	3115964.0	0.112006	-0.730463
     29063.73	0.13175	1970537.0	1762071.0	3657214.0	0.111816	-0.730212
     29064.21	0.15548	2276959.0	2036089.0	4225282.0	0.111810	-0.730055
     29064.70	0.091240	1342488.0	1200143.0	2491417.0	0.112084	-0.730411
     29065.18	0.10998	1625285.0	1453246.0	3017104.0	0.111884	-0.730498
     29065.67	0.086886	1298115.0	1160775.0	2409682.0	0.111825	-0.730407
     29066.16	0.11747	1747038.0	1561737.0	3241151.0	0.112123	-0.730130
     29066.64	0.11668	1749671.0	1564547.0	3247883.0	0.111831	-0.730407
     29067.13	0.11831	1763658.0	1577709.0	3273896.0	0.111416	-0.730007
     29067.61	0.12937	1947963.0	1742313.0	3615501.0	0.111571	-0.730017
     29068.10	0.18744	2770984.0	2477794.0	5142077.0	0.111834	-0.730088
     29068.59	0.083222	1252754.0	1120302.0	2324841.0	0.111746	-0.730053
     29069.07	0.11416	1721354.0	1539696.0	3194882.0	0.111526	-0.729965
     29069.56	0.11410	1671405.0	1494792.0	3101869.0	0.111678	-0.730018
     29070.04	0.13478	2023635.0	1810367.0	3756010.0	0.111366	-0.729828
     29070.53	0.14110	2109603.0	1886835.0	3914355.0	0.111599	-0.729750
     29071.01	0.12890	1981943.0	1772932.0	3677595.0	0.111443	-0.729624
     29071.50	0.16404	2474523.0	2213571.0	4592496.0	0.111441	-0.729817
     29071.99	0.15384	2323333.0	2078743.0	4311464.0	0.111239	-0.729514
     29072.47	0.076073	1104235.0	987638.0	2049349.0	0.111592	-0.729961
     29072.96	0.12146	1803822.0	1613783.0	3347346.0	0.111327	-0.729587
     29073.44	0.12447	1876972.0	1679011.0	3482059.0	0.111455	-0.729419
     29073.93	0.13017	1946072.0	1741129.0	3611281.0	0.111279	-0.729529
     29074.42	0.13280	1995847.0	1785712.0	3703926.0	0.111251	-0.729576
     29074.90	0.13811	2074357.0	1855688.0	3849227.0	0.111396	-0.729617
     29075.39	0.14819	2203530.0	1971509.0	4088587.0	0.111261	-0.729400
     29075.87	0.16104	2434108.0	2178073.0	4517151.0	0.111140	-0.729441
     29076.36	0.10332	1530383.0	1369218.0	2839785.0	0.111278	-0.729489
     29076.85	0.12577	1856382.0	1660913.0	3444349.0	0.111262	-0.729367
     29077.33	0.11663	1730123.0	1548591.0	3210418.0	0.110847	-0.729056
     29077.82	0.13720	2058906.0	1842218.0	3820013.0	0.111204	-0.729284
     29078.31	0.13001	1932149.0	1729069.0	3584312.0	0.111050	-0.728983
     29078.79	0.13475	1993391.0	1783533.0	3698220.0	0.111241	-0.729255
     29079.28	0.15360	2297642.0	2056054.0	4261741.0	0.111095	-0.728889
     29079.76	0.096513	1434658.0	1283834.0	2661397.0	0.111076	-0.729000
     29080.25	0.11608	1734568.0	1552327.0	3217322.0	0.111003	-0.728794
     29080.74	0.12420	1837417.0	1644520.0	3408569.0	0.110912	-0.728844
     29081.22	0.12311	1821468.0	1630364.0	3378896.0	0.110839	-0.728746
     29081.71	0.12717	1885071.0	1687187.0	3495974.0	0.110903	-0.728549
     29082.20	0.12754	1856198.0	1660789.0	3441974.0	0.111238	-0.728752
     29082.68	0.12547	1841257.0	1648555.0	3415447.0	0.110549	-0.728409
     29083.17	0.12760	1894116.0	1695085.0	3512487.0	0.111019	-0.728591
     29083.65	0.12065	1779096.0	1592039.0	3299312.0	0.111090	-0.728698
     29084.14	0.11956	1730217.0	1548332.0	3207557.0	0.111069	-0.728331
     29084.63	0.12016	1777646.0	1591006.0	3296421.0	0.110923	-0.728471
     29085.11	0.11986	1774749.0	1588611.0	3289627.0	0.110799	-0.727914
     29085.60	0.12810	1907950.0	1707906.0	3537326.0	0.110761	-0.728103
     29086.09	0.11463	1709756.0	1530294.0	3170127.0	0.110891	-0.728312
     29086.57	0.12828	1897715.0	1698847.0	3518800.0	0.110701	-0.728170
     29087.06	0.12870	1912992.0	1712392.0	3547419.0	0.110777	-0.728329
     29087.55	0.11811	1741462.0	1559220.0	3228057.0	0.110539	-0.727695
     29088.03	0.13252	1956348.0	1751375.0	3626915.0	0.110678	-0.727981
     29088.52	0.12717	1855466.0	1661267.0	3440039.0	0.110555	-0.727902
     29089.01	0.13368	1975713.0	1768965.0	3661704.0	0.110535	-0.727534
     29089.49	0.12273	1811574.0	1622220.0	3359256.0	0.110400	-0.727924
     29089.98	0.12701	1865366.0	1670706.0	3457740.0	0.110211	-0.727369
     29090.47	0.13177	1931604.0	1729887.0	3579902.0	0.110295	-0.727279
     29090.95	0.12547	1845717.0	1652859.0	3420935.0	0.110361	-0.727407
     29091.44	0.12192	1825521.0	1634577.0	3382599.0	0.110481	-0.727260
     29091.93	0.11792	1726964.0	1546310.0	3200626.0	0.110494	-0.727475
     29092.41	0.12765	1904824.0	1705578.0	3528471.0	0.110486	-0.726961
     29092.90	0.12307	1802126.0	1613332.0	3339008.0	0.110665	-0.727372
     29093.39	0.12866	1882319.0	1685388.0	3487001.0	0.110509	-0.727046
     29093.87	0.12501	1875896.0	1679806.0	3475607.0	0.110408	-0.727091
     29094.36	0.13223	1962164.0	1757146.0	3634348.0	0.110357	-0.726739
     29094.85	0.14195	2099524.0	1880368.0	3889697.0	0.110243	-0.726864
     29095.33	0.12174	1791559.0	1604972.0	3318423.0	0.109980	-0.726383
     29095.82	0.12939	1937550.0	1735269.0	3588253.0	0.110262	-0.726503
     29096.31	0.12943	1911660.0	1711895.0	3539917.0	0.110371	-0.726502
     29096.79	0.12606	1857024.0	1663141.0	3437619.0	0.110267	-0.726071
     29097.28	0.12488	1845167.0	1652629.0	3416883.0	0.110202	-0.726361
     29097.77	0.14709	2186786.0	1959052.0	4049687.0	0.109972	-0.726179
     29098.25	0.11955	1763706.0	1579880.0	3265540.0	0.110068	-0.726076
     29098.74	0.11903	1790757.0	1604288.0	3314090.0	0.109958	-0.725503
     29099.23	0.12316	1855693.0	1662222.0	3435029.0	0.110103	-0.725870
     29099.71	0.11732	1744642.0	1562575.0	3228773.0	0.110214	-0.725767
     29100.20	0.12036	1765814.0	1581700.0	3267894.0	0.110112	-0.725646
     29100.69	0.12683	1903738.0	1705580.0	3522910.0	0.109914	-0.725382
     29101.17	0.11575	1686167.0	1510463.0	3120279.0	0.110042	-0.725506
     29101.66	0.13808	2011723.0	1802261.0	3722980.0	0.109950	-0.725482
     29102.15	0.10682	1577325.0	1412786.0	2917641.0	0.110167	-0.725212
     29102.64	0.12444	1833409.0	1642809.0	3392478.0	0.109769	-0.725153
     29103.12	0.10542	1547353.0	1386624.0	2862289.0	0.109674	-0.724750
     29103.61	0.11674	1726673.0	1546854.0	3193311.0	0.109973	-0.724835
     29104.10	0.10217	1495063.0	1339373.0	2764112.0	0.109967	-0.724518
     29104.58	0.12751	1867781.0	1673535.0	3454050.0	0.109813	-0.724609
     29105.07	0.11605	1733306.0	1553010.0	3203840.0	0.109836	-0.724155
     29105.56	0.13332	1952697.0	1749181.0	3608915.0	0.110064	-0.724259
     29106.04	0.12211	1804501.0	1616908.0	3335139.0	0.109768	-0.723999
     29106.53	0.12543	1830252.0	1639562.0	3382263.0	0.110025	-0.724116
     29107.02	0.12277	1792014.0	1605688.0	3311422.0	0.109788	-0.723825
     29107.51	0.11983	1747144.0	1565487.0	3227797.0	0.109785	-0.723603
     29107.99	0.11750	1724463.0	1544513.0	3185086.0	0.110207	-0.723771
     29108.48	0.14825	2206642.0	1977450.0	4075828.0	0.109664	-0.723266
     29108.97	0.12767	1898529.0	1701673.0	3507107.0	0.109467	-0.723180
     29109.46	0.13348	1954736.0	1751867.0	3609818.0	0.109573	-0.722975
     29109.94	0.13708	1984045.0	1777846.0	3663211.0	0.109735	-0.722938
     29110.43	0.12651	1857224.0	1664631.0	3429442.0	0.109479	-0.722794
     29110.92	0.12145	1814072.0	1625338.0	3348451.0	0.109858	-0.722782
     29111.40	0.11389	1665164.0	1492565.0	3072907.0	0.109428	-0.722128
     29111.89	0.14060	2089032.0	1872361.0	3854499.0	0.109501	-0.722041
     29112.38	0.12671	1882738.0	1687188.0	3473361.0	0.109664	-0.722059
     29112.87	0.13553	2024966.0	1814926.0	3736095.0	0.109508	-0.721996
     29113.35	0.13816	2006884.0	1798715.0	3701248.0	0.109511	-0.721598
     29113.84	0.12712	1859100.0	1666188.0	3427888.0	0.109554	-0.721406
     29114.33	0.14639	2137824.0	1915898.0	3941428.0	0.109602	-0.721357
     29114.82	0.12302	1797707.0	1611101.0	3313441.0	0.109594	-0.721069
     29115.30	0.12871	1880092.0	1685176.0	3464261.0	0.109451	-0.720629
     29115.79	0.12918	1884941.0	1689523.0	3473347.0	0.109450	-0.720672
     29116.28	0.14534	2115915.0	1896427.0	3897804.0	0.109516	-0.720442
     29116.77	0.13466	1969464.0	1765122.0	3627848.0	0.109542	-0.720420
     29117.25	0.14584	2156359.0	1932660.0	3969802.0	0.109524	-0.719819
     29117.74	0.11428	1692892.0	1517398.0	3116345.0	0.109441	-0.719664
     29118.23	0.11822	1723310.0	1544834.0	3172070.0	0.109330	-0.719468
     29118.72	0.12682	1876685.0	1682227.0	3453139.0	0.109388	-0.719165
     29119.20	0.12407	1816466.0	1627943.0	3341590.0	0.109576	-0.719129
     29119.69	0.11772	1723080.0	1544403.0	3169859.0	0.109476	-0.719050
     29120.18	0.13025	1907208.0	1709744.0	3507352.0	0.109297	-0.718518
     29120.67	0.12196	1794685.0	1609266.0	3299536.0	0.109051	-0.718004
     29121.15	0.12735	1858927.0	1666212.0	3416440.0	0.109447	-0.718046
     29121.64	0.11467	1672703.0	1499662.0	3073805.0	0.109201	-0.717676
     29122.13	0.12708	1874857.0	1681095.0	3445130.0	0.109087	-0.717516
     29122.62	0.11844	1723813.0	1545742.0	3165885.0	0.109035	-0.716929
     29123.10	0.11710	1730158.0	1551372.0	3177854.0	0.109073	-0.717066
     29123.59	0.11943	1753965.0	1572574.0	3219956.0	0.109165	-0.716654
     29124.08	0.12158	1791098.0	1605669.0	3287806.0	0.109288	-0.716680
     29124.57	0.12370	1823668.0	1635139.0	3346017.0	0.109122	-0.716043
     29125.06	0.11660	1703144.0	1526822.0	3122825.0	0.109288	-0.715550
     29125.54	0.12527	1845195.0	1654097.0	3382817.0	0.109330	-0.715454
