# Diamond Light Source
# Instrument: B18-CORE XAS Date: Wed, 27 Jul 2016 22:47:34 BST
# Ring energy:   3.0
# Ring current - start: 299.1
# Primary slits:  vertical gap=  2.4; horizontal gap= 52.0; vertical offset=  0.4; horizontal offset= -1.0
# Secondary slits:  vertical gap=  3.5; horizontal gap= 23.0; vertical offset=  5.3; horizontal offset= -14.5
# OH Mirror Coating: Pt
# White beam filter: 140um PyC
# Crystal cut: Si(311)
# PostDCM slits:  vertical gap= 18.0; horizontal gap= 28.0; vertical offset= -9.1; horizontal offset= -16.5
# Experimental slits:  vertical gap= 28.6; horizontal gap= 45.0; vertical offset=  5.7; horizontal offset= -17.5
# HR Mirror : out; Y: 37.8; Pitch:  0.3; Coating: Pt
# Mirror 2: Pitch:  2.3; Height: -6.4; Yaw: -1.6; Bend:  0.8;
# I0 Stanford sensitivity: 20 nA/V Offsets: 20 pA
# It Stanford sensitivity: 100 nA/V Offsets: 1 pA
# Iref Stanford sensitivity: 20 nA/V Offsets: 1 pA
#
# Ascii output file name: 'Andrea_Sn//ascii/262883_PtSn_OC_Abu_2.dat'
# Nexus output file: '/dls/b18/data/2016/sp10306-9/Andrea_Sn//nexus/262883_PtSn_OC_Abu_2.nxs'
# XML folder and files:
# /dls/b18/data/2016/sp10306-9/xml/Andrea_Sn/
# QEXAFS_Parameters
# Sample_Parameters
# Detector_Parameters
# Output_Parameters
# The contents of these files are also stored in the nexus file.
#
# Sample name: PtSn_OC_Abu
# Sample description: default sample description
# Additional comments: default additional comments
# command: qexafs_energy 29000.0 30050.0 2094 263.53 qexafs_counterTimer01
#
#
# qexafs_energy	   time	       I0	       It	     Iref	  lnI0It	 lnItIref
     29000.24	0.12715	1887926.0	1481993.0	3077518.0	0.242091	-0.730736
     29000.73	0.17613	2595344.0	2037437.0	4232620.0	0.242026	-0.731129
     29001.21	0.14376	2092995.0	1643506.0	3413556.0	0.241764	-0.730923
     29001.69	0.091054	1367285.0	1073241.0	2229444.0	0.242144	-0.731069
     29002.18	0.11307	1682214.0	1320820.0	2743646.0	0.241858	-0.731035
     29002.66	0.12885	1922354.0	1509294.0	3135023.0	0.241908	-0.730995
     29003.14	0.12660	1843173.0	1447068.0	3006564.0	0.241949	-0.731258
     29003.63	0.13353	1971084.0	1547533.0	3214745.0	0.241922	-0.731086
     29004.11	0.12264	1788152.0	1404153.0	2916662.0	0.241748	-0.731006
     29004.59	0.13055	1920989.0	1508445.0	3132608.0	0.241761	-0.730787
     29005.08	0.12618	1849468.0	1452222.0	3016809.0	0.241803	-0.731105
     29005.56	0.12699	1871540.0	1469614.0	3052434.0	0.241762	-0.730940
     29006.05	0.12613	1874897.0	1472264.0	3058989.0	0.241752	-0.731283
     29006.53	0.12456	1856415.0	1457905.0	3028366.0	0.241647	-0.731023
     29007.01	0.13366	1967917.0	1545542.0	3210448.0	0.241601	-0.731036
     29007.50	0.12156	1783144.0	1400367.0	2908557.0	0.241644	-0.730923
     29007.98	0.13320	1932172.0	1517322.0	3151958.0	0.241698	-0.731077
     29008.46	0.11933	1746599.0	1371917.0	2849692.0	0.241461	-0.731002
     29008.95	0.10467	1539012.0	1209102.0	2511071.0	0.241263	-0.730831
     29009.43	0.12674	1868726.0	1467643.0	3048808.0	0.241599	-0.731093
     29009.92	0.12169	1801393.0	1415105.0	2939836.0	0.241357	-0.731150
     29010.40	0.11992	1775149.0	1394837.0	2896820.0	0.241107	-0.730836
     29010.88	0.12355	1809110.0	1421142.0	2951676.0	0.241374	-0.730912
     29011.37	0.11833	1715818.0	1348212.0	2800987.0	0.241111	-0.731193
     29011.85	0.13446	1964870.0	1543233.0	3205878.0	0.241547	-0.731106
     29012.34	0.13377	1979707.0	1555303.0	3230568.0	0.241278	-0.730988
     29012.82	0.12078	1750350.0	1375297.0	2856601.0	0.241146	-0.730963
     29013.30	0.12854	1852347.0	1455314.0	3023480.0	0.241232	-0.731187
     29013.79	0.13662	1995519.0	1568030.0	3257187.0	0.241084	-0.731044
     29014.27	0.12272	1816782.0	1427307.0	2965330.0	0.241277	-0.731199
     29014.76	0.13121	1934989.0	1520018.0	3157574.0	0.241379	-0.731082
     29015.24	0.13838	2052849.0	1613064.0	3351099.0	0.241093	-0.731153
     29015.72	0.10858	1597163.0	1255258.0	2607025.0	0.240888	-0.730869
     29016.21	0.12184	1813111.0	1424774.0	2959247.0	0.241031	-0.730922
     29016.69	0.13530	1992769.0	1565896.0	3252917.0	0.241067	-0.731094
     29017.18	0.11196	1639983.0	1288652.0	2677032.0	0.241089	-0.731112
     29017.66	0.11940	1753693.0	1377947.0	2862403.0	0.241129	-0.731067
     29018.14	0.14393	2111104.0	1659230.0	3445741.0	0.240857	-0.730785
     29018.63	0.11619	1723977.0	1354641.0	2814285.0	0.241097	-0.731172
     29019.11	0.13118	1948211.0	1530974.0	3180370.0	0.241007	-0.731093
     29019.60	0.13091	1949451.0	1532016.0	3181972.0	0.240963	-0.730917
     29020.08	0.13041	1962332.0	1542916.0	3204100.0	0.240459	-0.730757
     29020.57	0.12641	1857916.0	1460431.0	3033876.0	0.240724	-0.731109
     29021.05	0.12769	1890569.0	1486019.0	3086446.0	0.240777	-0.730920
     29021.53	0.11915	1760044.0	1383118.0	2873653.0	0.240998	-0.731244
     29022.02	0.13816	2052814.0	1613693.0	3352176.0	0.240686	-0.731084
     29022.50	0.11904	1752393.0	1377445.0	2861135.0	0.240752	-0.730988
     29022.99	0.13620	1974485.0	1552140.0	3224249.0	0.240673	-0.731065
     29023.47	0.14510	2112675.0	1661002.0	3450335.0	0.240534	-0.731050
     29023.96	0.10602	1539814.0	1210587.0	2514978.0	0.240556	-0.731159
     29024.44	0.11468	1682387.0	1322550.0	2746711.0	0.240652	-0.730843
     29024.92	0.12120	1806870.0	1420329.0	2950438.0	0.240708	-0.731065
     29025.41	0.11612	1717247.0	1350350.0	2805503.0	0.240359	-0.731219
     29025.89	0.11857	1718100.0	1351033.0	2806006.0	0.240350	-0.730893
     29026.38	0.13128	1947228.0	1530590.0	3179758.0	0.240754	-0.731152
     29026.86	0.10952	1609944.0	1266204.0	2630037.0	0.240176	-0.730974
     29027.35	0.12603	1850683.0	1455271.0	3022564.0	0.240363	-0.730913
     29027.83	0.10431	1521246.0	1196122.0	2484264.0	0.240445	-0.730892
     29028.32	0.11882	1749547.0	1375469.0	2857286.0	0.240562	-0.731077
     29028.80	0.099665	1481509.0	1165064.0	2419696.0	0.240285	-0.730866
     29029.28	0.13700	1969185.0	1548538.0	3217095.0	0.240308	-0.731168
     29029.77	0.11788	1714086.0	1347798.0	2800528.0	0.240408	-0.731336
     29030.25	0.13252	1923753.0	1513140.0	3143054.0	0.240091	-0.731008
     29030.74	0.13696	2015165.0	1585127.0	3292780.0	0.240037	-0.731068
     29031.22	0.12954	1887738.0	1484582.0	3084401.0	0.240246	-0.731224
     29031.71	0.11476	1669861.0	1313551.0	2728889.0	0.240006	-0.731160
     29032.19	0.13182	1975630.0	1554017.0	3228283.0	0.240044	-0.731107
     29032.68	0.11982	1765229.0	1388450.0	2884647.0	0.240092	-0.731215
     29033.16	0.12489	1826442.0	1436297.0	2983910.0	0.240302	-0.731166
     29033.65	0.15884	2385100.0	1876311.0	3897224.0	0.239933	-0.730957
     29034.13	0.14419	2141369.0	1684777.0	3499540.0	0.239812	-0.730998
     29034.62	0.13285	1945085.0	1530039.0	3178876.0	0.240012	-0.731234
     29035.10	0.10034	1454452.0	1144197.0	2376891.0	0.239926	-0.731090
     29035.58	0.10964	1605844.0	1263683.0	2624451.0	0.239619	-0.730841
     29036.07	0.13805	2045131.0	1608936.0	3342398.0	0.239889	-0.731115
     29036.55	0.12993	1945763.0	1530961.0	3180022.0	0.239759	-0.730992
     29037.04	0.13237	1936720.0	1523927.0	3165177.0	0.239705	-0.730918
     29037.52	0.13034	1918080.0	1509624.0	3135258.0	0.239464	-0.730851
     29038.01	0.13707	2000120.0	1574123.0	3270084.0	0.239509	-0.731117
     29038.49	0.14487	2132677.0	1677876.0	3485148.0	0.239849	-0.730982
     29038.98	0.12559	1858702.0	1462769.0	3038223.0	0.239547	-0.730942
     29039.46	0.12666	1860082.0	1463834.0	3040492.0	0.239562	-0.730960
     29039.95	0.12941	1875239.0	1475832.0	3065456.0	0.239514	-0.730974
     29040.43	0.13258	1962018.0	1544314.0	3207638.0	0.239394	-0.730955
     29040.92	0.12590	1851856.0	1457574.0	3027429.0	0.239415	-0.730940
     29041.40	0.12313	1803804.0	1419695.0	2948431.0	0.239456	-0.730831
     29041.89	0.12709	1888724.0	1486670.0	3087661.0	0.239363	-0.730875
     29042.37	0.11647	1707559.0	1343820.0	2791334.0	0.239549	-0.731003
     29042.86	0.13308	1982031.0	1559716.0	3239377.0	0.239618	-0.730877
     29043.34	0.12449	1848058.0	1454429.0	3020464.0	0.239522	-0.730797
     29043.83	0.13067	1918169.0	1509642.0	3135014.0	0.239499	-0.730761
     29044.31	0.12465	1815658.0	1428709.0	2966989.0	0.239677	-0.730776
     29044.80	0.12600	1831543.0	1441760.0	2995079.0	0.239294	-0.731106
     29045.28	0.12352	1785809.0	1405821.0	2919274.0	0.239250	-0.730713
     29045.77	0.12037	1739169.0	1368885.0	2843657.0	0.239411	-0.731094
     29046.25	0.12588	1839700.0	1448832.0	3008327.0	0.238845	-0.730626
     29046.74	0.10849	1588001.0	1250216.0	2596090.0	0.239160	-0.730690
     29047.22	0.12567	1862009.0	1466136.0	3044366.0	0.239026	-0.730662
     29047.71	0.12549	1848839.0	1455620.0	3022606.0	0.239126	-0.730687
     29048.19	0.11974	1773214.0	1395840.0	2898375.0	0.239297	-0.730654
     29048.68	0.11842	1746736.0	1375196.0	2855398.0	0.239153	-0.730615
     29049.16	0.12715	1834784.0	1444388.0	2999357.0	0.239241	-0.730712
     29049.65	0.12027	1753585.0	1380670.0	2867800.0	0.239093	-0.730976
     29050.13	0.13048	1874941.0	1476244.0	3065623.0	0.239076	-0.730750
     29050.62	0.13360	1941951.0	1529296.0	3175109.0	0.238886	-0.730534
     29051.10	0.12725	1863572.0	1467552.0	3047000.0	0.238899	-0.730562
     29051.59	0.13868	2018157.0	1589567.0	3299801.0	0.238723	-0.730401
     29052.08	0.12284	1812188.0	1427151.0	2963389.0	0.238855	-0.730653
     29052.56	0.11868	1734627.0	1366019.0	2836115.0	0.238892	-0.730534
     29053.05	0.12619	1818308.0	1432325.0	2972802.0	0.238607	-0.730206
     29053.53	0.11745	1746161.0	1375323.0	2855002.0	0.238731	-0.730384
     29054.02	0.13067	1909987.0	1504440.0	3122437.0	0.238676	-0.730193
     29054.50	0.11755	1673988.0	1318592.0	2737959.0	0.238644	-0.730648
     29054.99	0.12251	1806697.0	1422997.0	2954250.0	0.238735	-0.730480
     29055.47	0.13535	1966326.0	1548842.0	3215555.0	0.238659	-0.730492
     29055.96	0.13258	1913756.0	1508086.0	3130233.0	0.238227	-0.730266
     29056.44	0.13221	1914065.0	1508040.0	3130686.0	0.238418	-0.730441
     29056.93	0.12556	1828549.0	1440607.0	2990350.0	0.238458	-0.730326
     29057.41	0.12166	1760774.0	1386871.0	2878571.0	0.238703	-0.730244
     29057.90	0.13426	1919325.0	1512258.0	3138902.0	0.238370	-0.730269
     29058.39	0.12783	1831713.0	1443197.0	2996144.0	0.238391	-0.730465
     29058.87	0.12482	1796474.0	1415188.0	2938135.0	0.238563	-0.730513
     29059.36	0.12886	1837139.0	1447466.0	3004342.0	0.238395	-0.730244
     29059.84	0.13146	1894152.0	1492708.0	3097078.0	0.238179	-0.729867
     29060.33	0.14630	2090474.0	1647270.0	3418383.0	0.238271	-0.730048
     29060.81	0.10817	1554653.0	1224765.0	2542328.0	0.238503	-0.730331
     29061.30	0.10839	1548737.0	1220778.0	2533600.0	0.237951	-0.730153
     29061.78	0.12668	1846216.0	1454432.0	3019354.0	0.238523	-0.730427
     29062.27	0.12427	1793542.0	1413535.0	2933252.0	0.238099	-0.730018
     29062.76	0.12403	1768722.0	1394166.0	2892544.0	0.237961	-0.729840
     29063.24	0.11430	1630723.0	1285198.0	2667378.0	0.238111	-0.730183
     29063.73	0.13715	1963958.0	1547682.0	3212643.0	0.238203	-0.730336
     29064.21	0.15624	2213981.0	1744880.0	3620777.0	0.238106	-0.730003
     29064.70	0.083423	1202220.0	947945.0	1966412.0	0.237629	-0.729669
     29065.18	0.11244	1590183.0	1253194.0	2600878.0	0.238154	-0.730154
     29065.67	0.083325	1206676.0	950870.0	1973044.0	0.238247	-0.729955
     29066.16	0.12838	1838166.0	1448787.0	3006265.0	0.238042	-0.729972
     29066.64	0.10731	1512224.0	1192129.0	2473937.0	0.237841	-0.730070
     29067.13	0.12224	1773118.0	1397655.0	2900057.0	0.237944	-0.729935
     29067.61	0.13569	1952934.0	1539131.0	3193621.0	0.238115	-0.729937
     29068.10	0.18331	2602343.0	2051402.0	4255830.0	0.237889	-0.729766
     29068.59	0.083117	1173926.0	925345.0	1920411.0	0.237942	-0.730128
     29069.07	0.11176	1610410.0	1269753.0	2633729.0	0.237666	-0.729578
     29069.56	0.12924	1863258.0	1468892.0	3048222.0	0.237818	-0.730050
     29070.04	0.12937	1838670.0	1449732.0	3007995.0	0.237664	-0.729895
     29070.53	0.13137	1884081.0	1485350.0	3080907.0	0.237790	-0.729574
     29071.01	0.13100	1886738.0	1487176.0	3084655.0	0.237970	-0.729561
     29071.50	0.14806	2172496.0	1713303.0	3552829.0	0.237454	-0.729321
     29071.99	0.17206	2525555.0	1991372.0	4129147.0	0.237637	-0.729247
     29072.47	0.078164	1170454.0	922582.0	1913429.0	0.237971	-0.729476
     29072.96	0.11178	1630839.0	1285675.0	2666725.0	0.237811	-0.729567
     29073.44	0.12735	1872951.0	1476952.0	3063449.0	0.237535	-0.729561
     29073.93	0.13097	1933512.0	1524803.0	3162241.0	0.237473	-0.729416
     29074.42	0.13112	1904449.0	1502101.0	3114524.0	0.237328	-0.729212
     29074.90	0.14373	2098207.0	1654852.0	3430945.0	0.237372	-0.729124
     29075.39	0.14002	2049839.0	1616744.0	3352093.0	0.237347	-0.729171
     29075.87	0.16844	2487801.0	1962419.0	4068269.0	0.237221	-0.729040
     29076.36	0.11294	1661438.0	1310108.0	2715350.0	0.237574	-0.728811
     29076.85	0.11148	1642413.0	1295296.0	2684630.0	0.237427	-0.728804
     29077.33	0.12582	1835365.0	1447506.0	3000763.0	0.237401	-0.729025
     29077.82	0.12736	1874290.0	1478457.0	3063787.0	0.237231	-0.728653
     29078.31	0.13589	1946136.0	1534969.0	3181280.0	0.237336	-0.728773
     29078.79	0.12374	1824718.0	1439694.0	2983451.0	0.236995	-0.728650
     29079.28	0.15178	2215920.0	1748197.0	3622705.0	0.237083	-0.728636
     29079.76	0.11320	1628634.0	1284768.0	2661923.0	0.237163	-0.728471
     29080.25	0.11690	1674408.0	1320584.0	2736493.0	0.237386	-0.728603
     29080.74	0.12284	1773243.0	1398901.0	2898345.0	0.237123	-0.728453
     29081.22	0.12530	1757568.0	1386349.0	2872801.0	0.237257	-0.728614
     29081.71	0.12416	1783826.0	1407068.0	2914909.0	0.237252	-0.728330
     29082.20	0.12817	1847787.0	1457801.0	3019427.0	0.237060	-0.728138
     29082.68	0.11703	1671791.0	1319004.0	2732539.0	0.237019	-0.728354
     29083.17	0.13011	1886479.0	1487971.0	3083451.0	0.237299	-0.728636
     29083.65	0.12065	1759378.0	1388251.0	2875450.0	0.236916	-0.728165
     29084.14	0.12345	1797634.0	1418087.0	2936590.0	0.237163	-0.727940
     29084.63	0.12139	1746427.0	1378156.0	2854590.0	0.236826	-0.728182
     29085.11	0.12526	1794433.0	1415523.0	2931622.0	0.237190	-0.728057
     29085.60	0.11941	1741072.0	1373952.0	2845349.0	0.236810	-0.727994
     29086.09	0.11895	1738636.0	1372242.0	2841133.0	0.236655	-0.727757
     29086.57	0.12682	1834194.0	1447615.0	2996947.0	0.236688	-0.727677
     29087.06	0.12894	1825979.0	1441031.0	2982981.0	0.236757	-0.727564
     29087.55	0.11950	1702510.0	1343546.0	2781427.0	0.236791	-0.727652
     29088.03	0.12030	1718816.0	1356435.0	2807288.0	0.236776	-0.727359
     29088.52	0.12673	1800644.0	1421107.0	2941588.0	0.236708	-0.727513
     29089.01	0.13849	2004023.0	1581018.0	3272710.0	0.237088	-0.727549
     29089.49	0.14423	2088418.0	1648645.0	3411941.0	0.236453	-0.727328
     29089.98	0.12141	1765747.0	1393668.0	2884927.0	0.236635	-0.727560
     29090.47	0.12349	1784112.0	1407947.0	2913700.0	0.236788	-0.727291
     29090.95	0.12602	1819607.0	1436089.0	2971389.0	0.236697	-0.727106
     29091.44	0.12189	1747434.0	1378742.0	2853350.0	0.236977	-0.727322
     29091.93	0.11790	1672991.0	1320605.0	2731746.0	0.236523	-0.726851
     29092.41	0.12372	1770613.0	1397580.0	2891002.0	0.236584	-0.726861
     29092.90	0.13659	1993084.0	1573350.0	3253786.0	0.236476	-0.726612
     29093.39	0.11258	1611346.0	1272081.0	2630450.0	0.236416	-0.726501
     29093.87	0.13412	1921424.0	1516838.0	3137266.0	0.236439	-0.726724
     29094.36	0.13439	1907702.0	1505936.0	3113725.0	0.236485	-0.726405
     29094.85	0.13023	1879328.0	1483740.0	3067777.0	0.236348	-0.726387
     29095.33	0.13142	1886148.0	1488963.0	3078503.0	0.236457	-0.726364
     29095.82	0.11529	1643541.0	1297790.0	2683149.0	0.236190	-0.726328
     29096.31	0.13403	1884295.0	1487859.0	3075447.0	0.236216	-0.726112
     29096.79	0.12328	1747177.0	1379675.0	2850702.0	0.236153	-0.725717
     29097.28	0.12842	1827268.0	1442437.0	2980747.0	0.236488	-0.725840
     29097.77	0.14294	2044728.0	1614413.0	3336056.0	0.236293	-0.725818
     29098.25	0.11775	1664438.0	1314294.0	2715187.0	0.236188	-0.725561
     29098.74	0.11976	1701700.0	1343611.0	2776241.0	0.236267	-0.725737
     29099.23	0.12583	1814445.0	1432708.0	2958511.0	0.236213	-0.725120
     29099.71	0.12206	1745856.0	1378462.0	2847566.0	0.236277	-0.725496
     29100.20	0.11629	1674192.0	1322060.0	2730243.0	0.236140	-0.725199
     29100.69	0.12914	1867827.0	1475423.0	3046505.0	0.235831	-0.725050
     29101.17	0.12041	1706589.0	1348105.0	2783828.0	0.235797	-0.725127
     29101.66	0.13378	1918413.0	1515136.0	3128419.0	0.235993	-0.725023
     29102.15	0.11052	1578740.0	1246916.0	2574220.0	0.235954	-0.724873
     29102.64	0.11489	1680678.0	1327322.0	2739993.0	0.236034	-0.724792
     29103.12	0.11003	1589151.0	1255001.0	2589455.0	0.236064	-0.724311
     29103.61	0.11168	1607914.0	1269929.0	2620877.0	0.235977	-0.724548
     29104.10	0.12188	1752365.0	1383818.0	2855140.0	0.236120	-0.724275
     29104.58	0.11724	1699214.0	1342332.0	2769476.0	0.235757	-0.724250
     29105.07	0.11139	1596983.0	1261410.0	2602588.0	0.235886	-0.724276
     29105.56	0.12562	1819559.0	1437511.0	2964811.0	0.235681	-0.723900
     29106.04	0.12991	1858642.0	1467537.0	3026625.0	0.236261	-0.723863
     29106.53	0.13711	2001819.0	1581212.0	3260005.0	0.235865	-0.723537
     29107.02	0.10599	1519717.0	1200724.0	2475528.0	0.235599	-0.723529
     29107.51	0.12204	1770429.0	1398493.0	2882681.0	0.235827	-0.723326
     29107.99	0.13250	1921521.0	1517581.0	3127841.0	0.235999	-0.723225
     29108.48	0.13411	1958688.0	1547178.0	3188721.0	0.235842	-0.723187
     29108.97	0.12019	1735030.0	1370505.0	2823270.0	0.235845	-0.722717
     29109.46	0.14351	2092324.0	1653145.0	3405733.0	0.235596	-0.722781
     29109.94	0.13785	1991972.0	1573573.0	3240083.0	0.235776	-0.722250
     29110.43	0.13466	1917230.0	1514776.0	3119758.0	0.235614	-0.722488
     29110.92	0.12172	1738568.0	1373931.0	2829477.0	0.235386	-0.722416
     29111.40	0.11097	1584054.0	1251640.0	2576174.0	0.235533	-0.721851
     29111.89	0.12079	1758806.0	1389768.0	2859817.0	0.235498	-0.721621
     29112.38	0.14515	2168525.0	1713141.0	3524898.0	0.235719	-0.721523
     29112.87	0.13051	1920805.0	1517545.0	3122349.0	0.235650	-0.721492
     29113.35	0.13468	1956846.0	1546316.0	3180749.0	0.235459	-0.721241
     29113.84	0.12805	1836500.0	1451173.0	2984258.0	0.235489	-0.720979
     29114.33	0.14380	2104347.0	1663530.0	3419427.0	0.235063	-0.720531
     29114.82	0.13116	1880877.0	1486128.0	3055131.0	0.235564	-0.720648
     29115.30	0.12531	1829742.0	1445953.0	2971415.0	0.235406	-0.720270
     29115.79	0.13825	2011688.0	1589753.0	3265561.0	0.235396	-0.719853
     29116.28	0.13587	1990304.0	1573066.0	3231820.0	0.235261	-0.720019
     29116.77	0.13529	2018266.0	1594802.0	3275268.0	0.235489	-0.719650
     29117.25	0.13648	2016105.0	1593681.0	3271891.0	0.235121	-0.719322
     29117.74	0.11702	1740683.0	1375751.0	2823961.0	0.235278	-0.719141
     29118.23	0.11744	1752848.0	1385274.0	2842806.0	0.235344	-0.718894
     29118.72	0.12345	1851943.0	1463763.0	3002624.0	0.235225	-0.718476
     29119.20	0.12606	1864549.0	1473404.0	3022199.0	0.235444	-0.718409
     29119.69	0.11980	1764966.0	1394951.0	2860467.0	0.235272	-0.718126
     29120.18	0.12487	1843823.0	1457252.0	2987380.0	0.235289	-0.717844
     29120.67	0.13004	1928255.0	1523915.0	3123033.0	0.235333	-0.717522
     29121.15	0.12316	1841320.0	1455193.0	2982493.0	0.235344	-0.717621
     29121.64	0.13182	1952307.0	1543165.0	3161254.0	0.235176	-0.717133
     29122.13	0.11967	1764316.0	1394646.0	2855803.0	0.235122	-0.716712
     29122.62	0.11746	1750859.0	1383934.0	2833242.0	0.235176	-0.716491
     29123.10	0.12203	1806520.0	1427711.0	2922646.0	0.235330	-0.716417
     29123.59	0.11009	1637320.0	1294720.0	2648632.0	0.234766	-0.715749
     29124.08	0.12035	1791314.0	1415917.0	2896409.0	0.235172	-0.715694
     29124.57	0.12574	1879730.0	1485713.0	3038133.0	0.235233	-0.715348
     29125.06	0.12112	1827580.0	1444454.0	2953033.0	0.235261	-0.715101
     29125.54	0.12603	1867561.0	1475775.0	3016065.0	0.235450	-0.714770
