# Diamond Light Source
# Instrument: B18-CORE XAS Date: Thu, 28 Jul 2016 01:47:04 BST
# Ring energy:   3.0
# Ring current - start: 299.4
# Primary slits:  vertical gap=  2.4; horizontal gap= 52.0; vertical offset=  0.4; horizontal offset= -1.0
# Secondary slits:  vertical gap=  3.5; horizontal gap= 23.0; vertical offset=  5.3; horizontal offset= -14.5
# OH Mirror Coating: Pt
# White beam filter: 140um PyC
# Crystal cut: Si(311)
# PostDCM slits:  vertical gap= 18.0; horizontal gap= 28.0; vertical offset= -9.1; horizontal offset= -16.5
# Experimental slits:  vertical gap= 28.6; horizontal gap= 45.0; vertical offset=  5.7; horizontal offset= -17.5
# HR Mirror : out; Y: 37.8; Pitch:  0.3; Coating: Pt
# Mirror 2: Pitch:  2.3; Height: -6.4; Yaw: -1.6; Bend:  0.8;
# I0 Stanford sensitivity: 20 nA/V Offsets: 20 pA
# It Stanford sensitivity: 100 nA/V Offsets: 1 pA
# Iref Stanford sensitivity: 20 nA/V Offsets: 1 pA
#
# Ascii output file name: 'Andrea_Sn//ascii/262920_PtSn_OCO_H2_Abu_2.dat'
# Nexus output file: '/dls/b18/data/2016/sp10306-9/Andrea_Sn//nexus/262920_PtSn_OCO_H2_Abu_2.nxs'
# XML folder and files:
# /dls/b18/data/2016/sp10306-9/xml/Andrea_Sn/
# QEXAFS_Parameters
# Sample_Parameters
# Detector_Parameters
# Output_Parameters
# The contents of these files are also stored in the nexus file.
#
# Sample name: PtSn_OCO_H2_Abu
# Sample description: default sample description
# Additional comments: default additional comments
# command: qexafs_energy 29000.0 30050.0 2094 263.53 qexafs_counterTimer01
#
#
# qexafs_energy	   time	       I0	       It	     Iref	  lnI0It	 lnItIref
     29000.24	0.13896	2225046.0	1773144.0	3665908.0	0.227023	-0.726322
     29000.73	0.14575	2330763.0	1857280.0	3840640.0	0.227083	-0.726526
     29001.21	0.17227	2752123.0	2193112.0	4534797.0	0.227051	-0.726459
     29001.69	0.084000	1346083.0	1072367.0	2217926.0	0.227331	-0.726704
     29002.18	0.12603	2021718.0	1610797.0	3329143.0	0.227219	-0.725986
     29002.66	0.12238	1951552.0	1555441.0	3216046.0	0.226866	-0.726394
     29003.14	0.13004	2082189.0	1659229.0	3429653.0	0.227067	-0.726106
     29003.63	0.12828	2043398.0	1628277.0	3367210.0	0.227092	-0.726562
     29004.11	0.12030	1930166.0	1538253.0	3180343.0	0.226959	-0.726342
     29004.59	0.12874	2057352.0	1639593.0	3389511.0	0.226972	-0.726238
     29005.08	0.12457	1978700.0	1577120.0	3261285.0	0.226840	-0.726521
     29005.56	0.12735	2037011.0	1623711.0	3357126.0	0.226769	-0.726371
     29006.05	0.11758	1876156.0	1495196.0	3091123.0	0.226968	-0.726277
     29006.53	0.13326	2135734.0	1702671.0	3520086.0	0.226612	-0.726287
     29007.01	0.12348	1976227.0	1575084.0	3257329.0	0.226881	-0.726599
     29007.50	0.12361	1982091.0	1580074.0	3267935.0	0.226681	-0.726687
     29007.98	0.13070	2088796.0	1665117.0	3443253.0	0.226692	-0.726521
     29008.46	0.12606	2016999.0	1607843.0	3324340.0	0.226717	-0.726378
     29008.95	0.10857	1742872.0	1388910.0	2872113.0	0.227015	-0.726529
     29009.43	0.11432	1829195.0	1458554.0	3015457.0	0.226430	-0.726306
     29009.92	0.12202	1955577.0	1559063.0	3224341.0	0.226600	-0.726644
     29010.40	0.11259	1806271.0	1440033.0	2978131.0	0.226598	-0.726630
     29010.88	0.13365	2150479.0	1714389.0	3545304.0	0.226634	-0.726567
     29011.37	0.13061	2095424.0	1670643.0	3454163.0	0.226547	-0.726372
     29011.85	0.12221	1964536.0	1566331.0	3238525.0	0.226520	-0.726382
     29012.34	0.12853	2065663.0	1647125.0	3406276.0	0.226420	-0.726588
     29012.82	0.13188	2120000.0	1690853.0	3496030.0	0.226183	-0.726395
     29013.30	0.13113	2111847.0	1684246.0	3482939.0	0.226245	-0.726558
     29013.79	0.11726	1889865.0	1506774.0	3115480.0	0.226534	-0.726412
     29014.27	0.12721	2043061.0	1629394.0	3369660.0	0.226241	-0.726604
     29014.76	0.13774	2218286.0	1769145.0	3658224.0	0.226238	-0.726481
     29015.24	0.12094	1945868.0	1551809.0	3208746.0	0.226287	-0.726459
     29015.72	0.12117	1953812.0	1558559.0	3222397.0	0.226021	-0.726364
     29016.21	0.12745	2056084.0	1639587.0	3390175.0	0.226359	-0.726437
     29016.69	0.12444	2006123.0	1600206.0	3308620.0	0.226072	-0.726399
     29017.18	0.12382	1995328.0	1591564.0	3290713.0	0.226091	-0.726387
     29017.66	0.12895	2076473.0	1656363.0	3424714.0	0.226047	-0.726394
     29018.14	0.12542	2018560.0	1609952.0	3328913.0	0.226180	-0.726441
     29018.63	0.12561	2019730.0	1611457.0	3330967.0	0.225825	-0.726124
     29019.11	0.14225	2290530.0	1827040.0	3777566.0	0.226086	-0.726383
     29019.60	0.12585	2027207.0	1617233.0	3343290.0	0.225942	-0.726239
     29020.08	0.12919	2077657.0	1657238.0	3426814.0	0.226088	-0.726479
     29020.57	0.12263	1970606.0	1571730.0	3250517.0	0.226164	-0.726637
     29021.05	0.12726	2044243.0	1631225.0	3373656.0	0.225696	-0.726666
     29021.53	0.13696	2204094.0	1758645.0	3636949.0	0.225773	-0.726602
     29022.02	0.12215	1966878.0	1569106.0	3243855.0	0.225941	-0.726256
     29022.50	0.13510	2173681.0	1734541.0	3585474.0	0.225679	-0.726148
     29022.99	0.12138	1955255.0	1560193.0	3226150.0	0.225711	-0.726480
     29023.47	0.14827	2385418.0	1903826.0	3936004.0	0.225509	-0.726300
     29023.96	0.10626	1711509.0	1365923.0	2824509.0	0.225545	-0.726504
     29024.44	0.12081	1944581.0	1551568.0	3208463.0	0.225780	-0.726526
     29024.92	0.11291	1819621.0	1451805.0	3002275.0	0.225821	-0.726563
     29025.41	0.12443	2003958.0	1599124.0	3306572.0	0.225668	-0.726456
     29025.89	0.12926	2081350.0	1661158.0	3434612.0	0.225502	-0.726389
     29026.38	0.11120	1792650.0	1430733.0	2959158.0	0.225508	-0.726718
     29026.86	0.12669	2036488.0	1625471.0	3360713.0	0.225429	-0.726356
     29027.35	0.12293	1974489.0	1575846.0	3257850.0	0.225517	-0.726275
     29027.83	0.10444	1679390.0	1340530.0	2771306.0	0.225366	-0.726254
     29028.32	0.10303	1656962.0	1322379.0	2734030.0	0.225553	-0.726344
     29028.80	0.11664	1879555.0	1500339.0	3102567.0	0.225344	-0.726539
     29029.28	0.12149	1959357.0	1563992.0	3234146.0	0.225375	-0.726523
     29029.77	0.11896	1913133.0	1527211.0	3158531.0	0.225299	-0.726664
     29030.25	0.14536	2340382.0	1868171.0	3863646.0	0.225354	-0.726651
     29030.74	0.12177	1956433.0	1561436.0	3228487.0	0.225517	-0.726408
     29031.22	0.14168	2274842.0	1816041.0	3754392.0	0.225252	-0.726267
     29031.71	0.11949	1924791.0	1536576.0	3177338.0	0.225261	-0.726487
     29032.19	0.096265	1545847.0	1234667.0	2552422.0	0.224771	-0.726241
     29032.68	0.15719	2530458.0	2020038.0	4177645.0	0.225284	-0.726631
     29033.16	0.13195	2123287.0	1695441.0	3505639.0	0.225022	-0.726430
     29033.65	0.11956	1923398.0	1535682.0	3175236.0	0.225119	-0.726407
     29034.13	0.13851	2222690.0	1774772.0	3670169.0	0.225046	-0.726566
     29034.62	0.16192	2605387.0	2080749.0	4302079.0	0.224853	-0.726370
     29035.10	0.10245	1645329.0	1313791.0	2716632.0	0.225024	-0.726476
     29035.58	0.10972	1764036.0	1408634.0	2912874.0	0.224984	-0.726520
     29036.07	0.13270	2132723.0	1703039.0	3521654.0	0.224985	-0.726516
     29036.55	0.12958	2082422.0	1663286.0	3439184.0	0.224736	-0.726439
     29037.04	0.13406	2155535.0	1721060.0	3558869.0	0.225099	-0.726502
     29037.52	0.13441	2157788.0	1723746.0	3564454.0	0.224584	-0.726511
     29038.01	0.12972	2086787.0	1666672.0	3446035.0	0.224797	-0.726395
     29038.49	0.14323	2294483.0	1832317.0	3788798.0	0.224926	-0.726468
     29038.98	0.12390	1986429.0	1586671.0	3281032.0	0.224700	-0.726520
     29039.46	0.13072	2101035.0	1678082.0	3469316.0	0.224779	-0.726306
     29039.95	0.12841	2061786.0	1646588.0	3404176.0	0.224867	-0.726298
     29040.43	0.12416	1994868.0	1593457.0	3295089.0	0.224672	-0.726527
     29040.92	0.13307	2133993.0	1704496.0	3524261.0	0.224725	-0.726401
     29041.40	0.12143	1949758.0	1557563.0	3220705.0	0.224583	-0.726478
     29041.89	0.13280	2133869.0	1704650.0	3525330.0	0.224577	-0.726614
     29042.37	0.12416	1990589.0	1590325.0	3288486.0	0.224492	-0.726489
     29042.86	0.12190	1951994.0	1559687.0	3225451.0	0.224366	-0.726588
     29043.34	0.12262	1971383.0	1574999.0	3257251.0	0.224481	-0.726629
     29043.83	0.13032	2090333.0	1670059.0	3453352.0	0.224464	-0.726486
     29044.31	0.12298	1970489.0	1574687.0	3255444.0	0.224225	-0.726272
     29044.80	0.12896	2068169.0	1652738.0	3417412.0	0.224230	-0.726450
     29045.28	0.12656	2032229.0	1624263.0	3358497.0	0.224079	-0.726439
     29045.77	0.11610	1863602.0	1488979.0	3078914.0	0.224421	-0.726486
     29046.25	0.12337	1980119.0	1582246.0	3272093.0	0.224312	-0.726584
     29046.74	0.11427	1831695.0	1463649.0	3026323.0	0.224309	-0.726416
     29047.22	0.12649	2030025.0	1621658.0	3353148.0	0.224599	-0.726451
     29047.71	0.11734	1881276.0	1503231.0	3108327.0	0.224333	-0.726468
     29048.19	0.11042	1769012.0	1413795.0	2923313.0	0.224144	-0.726440
     29048.68	0.13161	2107722.0	1684482.0	3482742.0	0.224150	-0.726362
     29049.16	0.12084	1937775.0	1548487.0	3201989.0	0.224262	-0.726494
     29049.65	0.12165	1952208.0	1560241.0	3225465.0	0.224121	-0.726237
     29050.13	0.12753	2047595.0	1636714.0	3384423.0	0.223975	-0.726493
     29050.62	0.13395	2149195.0	1717805.0	3550992.0	0.224046	-0.726180
     29051.10	0.13288	2130752.0	1703437.0	3521714.0	0.223827	-0.726300
     29051.59	0.12553	2012045.0	1608266.0	3324585.0	0.223995	-0.726188
     29052.08	0.13910	2233724.0	1785479.0	3691556.0	0.223983	-0.726361
     29052.56	0.11919	1911277.0	1527732.0	3158934.0	0.223987	-0.726450
     29053.05	0.12777	2049819.0	1638299.0	3386831.0	0.224093	-0.726236
     29053.53	0.11344	1820350.0	1455221.0	3008189.0	0.223871	-0.726180
     29054.02	0.12215	1959484.0	1566393.0	3237888.0	0.223906	-0.726146
     29054.50	0.12742	2037533.0	1628994.0	3367266.0	0.223777	-0.726138
     29054.99	0.13033	2089670.0	1670874.0	3454034.0	0.223659	-0.726196
     29055.47	0.13245	2123988.0	1698308.0	3510636.0	0.223663	-0.726165
     29055.96	0.12292	1969799.0	1574899.0	3255507.0	0.223740	-0.726157
     29056.44	0.14302	2291223.0	1831626.0	3786723.0	0.223882	-0.726297
     29056.93	0.13165	2105212.0	1683059.0	3479241.0	0.223803	-0.726201
     29057.41	0.12010	1926857.0	1540684.0	3184495.0	0.223664	-0.726067
     29057.90	0.12046	1926129.0	1540108.0	3183821.0	0.223660	-0.726230
     29058.39	0.13889	2222390.0	1776742.0	3672706.0	0.223802	-0.726147
     29058.87	0.12205	1955930.0	1563974.0	3232821.0	0.223636	-0.726125
     29059.36	0.13350	2139568.0	1711043.0	3537211.0	0.223501	-0.726235
     29059.84	0.12474	2000013.0	1599362.0	3305936.0	0.223549	-0.726115
     29060.33	0.12553	2009334.0	1607047.0	3321549.0	0.223405	-0.726033
     29060.81	0.12635	2018713.0	1614484.0	3336331.0	0.223445	-0.725856
     29061.30	0.11316	1810424.0	1447653.0	2992485.0	0.223617	-0.726161
     29061.78	0.12823	2055908.0	1644500.0	3399415.0	0.223281	-0.726167
     29062.27	0.12301	1971228.0	1576867.0	3258985.0	0.223217	-0.725976
     29062.76	0.13239	2117744.0	1693714.0	3500392.0	0.223428	-0.725951
     29063.24	0.11942	1910420.0	1528474.0	3159348.0	0.223053	-0.726096
     29063.73	0.13879	2219425.0	1775537.0	3669869.0	0.223145	-0.726053
     29064.21	0.13866	2217750.0	1773800.0	3666588.0	0.223369	-0.726137
     29064.70	0.12040	1922352.0	1537716.0	3178274.0	0.223251	-0.726040
     29065.18	0.085579	1369739.0	1095631.0	2264350.0	0.223290	-0.725957
     29065.67	0.093020	1489655.0	1191532.0	2462736.0	0.223305	-0.726033
     29066.16	0.12483	1990252.0	1592467.0	3291234.0	0.222977	-0.725978
     29066.64	0.10359	1655919.0	1324651.0	2738065.0	0.223207	-0.726102
     29067.13	0.12714	2031867.0	1625628.0	3359493.0	0.223061	-0.725896
     29067.61	0.13953	2232903.0	1786453.0	3692204.0	0.223070	-0.725991
     29068.10	0.15807	2527760.0	2022123.0	4179285.0	0.223186	-0.725992
     29068.59	0.10093	1613770.0	1291015.0	2667691.0	0.223144	-0.725785
     29069.07	0.10990	1754862.0	1404228.0	2901626.0	0.222903	-0.725784
     29069.56	0.12791	2035279.0	1628342.0	3364642.0	0.223071	-0.725759
     29070.04	0.12564	2004418.0	1603978.0	3313721.0	0.222867	-0.725585
     29070.53	0.13926	2226387.0	1781297.0	3679884.0	0.223038	-0.725539
     29071.01	0.12180	1947758.0	1559153.0	3220756.0	0.222536	-0.725473
     29071.50	0.13496	2150921.0	1721483.0	3556309.0	0.222710	-0.725537
     29071.99	0.20097	3212246.0	2571206.0	5311326.0	0.222595	-0.725466
     29072.47	0.072083	1150579.0	920805.0	1901680.0	0.222772	-0.725245
     29072.96	0.11248	1798926.0	1439497.0	2974352.0	0.222896	-0.725732
     29073.44	0.13562	2169783.0	1736897.0	3587923.0	0.222527	-0.725473
     29073.93	0.12150	1943177.0	1555139.0	3212187.0	0.222759	-0.725387
     29074.42	0.12473	1993878.0	1596085.0	3296455.0	0.222528	-0.725294
     29074.90	0.14273	2276985.0	1822770.0	3765543.0	0.222495	-0.725535
     29075.39	0.13520	2153897.0	1724044.0	3560847.0	0.222606	-0.725326
     29075.87	0.16609	2652421.0	2123076.0	4385838.0	0.222607	-0.725515
     29076.36	0.10876	1738017.0	1391414.0	2873611.0	0.222424	-0.725249
     29076.85	0.11671	1860484.0	1489389.0	3075505.0	0.222471	-0.725103
     29077.33	0.13591	2168927.0	1736506.0	3586171.0	0.222358	-0.725210
     29077.82	0.12393	1973790.0	1580095.0	3261438.0	0.222471	-0.724683
     29078.31	0.13363	2126901.0	1702731.0	3515381.0	0.222433	-0.724914
     29078.79	0.12828	2043821.0	1636109.0	3378242.0	0.222500	-0.725035
     29079.28	0.12327	1968650.0	1576603.0	3254300.0	0.222075	-0.724705
     29079.76	0.13678	2183859.0	1748444.0	3609212.0	0.222367	-0.724763
     29080.25	0.11284	1803231.0	1443915.0	2980714.0	0.222222	-0.724805
     29080.74	0.12364	1973540.0	1580751.0	3262489.0	0.221929	-0.724590
     29081.22	0.12598	2010182.0	1609931.0	3323715.0	0.222034	-0.724892
     29081.71	0.12272	1959278.0	1569183.0	3238372.0	0.222021	-0.724516
     29082.20	0.12945	2060848.0	1650490.0	3406786.0	0.222045	-0.724697
     29082.68	0.12107	1927928.0	1543830.0	3186595.0	0.222180	-0.724687
     29083.17	0.13923	2212767.0	1772330.0	3657185.0	0.221949	-0.724399
     29083.65	0.10884	1733823.0	1388883.0	2865385.0	0.221829	-0.724203
     29084.14	0.12202	1945217.0	1558234.0	3214122.0	0.221820	-0.724001
     29084.63	0.12347	1965387.0	1573916.0	3247439.0	0.222122	-0.724300
     29085.11	0.11370	1807124.0	1447503.0	2985972.0	0.221897	-0.724085
     29085.60	0.11685	1861532.0	1490919.0	3076394.0	0.222007	-0.724365
     29086.09	0.13177	2095381.0	1678518.0	3462745.0	0.221824	-0.724150
     29086.57	0.11712	1866479.0	1495188.0	3083747.0	0.221802	-0.723893
     29087.06	0.13167	2094313.0	1677655.0	3460681.0	0.221829	-0.724068
     29087.55	0.10371	1650147.0	1322019.0	2727053.0	0.221704	-0.724061
     29088.03	0.13473	2146678.0	1719805.0	3547189.0	0.221711	-0.723945
     29088.52	0.14040	2230325.0	1786467.0	3684687.0	0.221907	-0.723946
     29089.01	0.13259	2101005.0	1683083.0	3471142.0	0.221789	-0.723856
     29089.49	0.12504	1978493.0	1584917.0	3269222.0	0.221803	-0.724020
     29089.98	0.13505	2147754.0	1720775.0	3548398.0	0.221648	-0.723721
     29090.47	0.12078	1919552.0	1537927.0	3171556.0	0.221656	-0.723787
     29090.95	0.13441	2135904.0	1711214.0	3527777.0	0.221687	-0.723465
     29091.44	0.11621	1852452.0	1484232.0	3059890.0	0.221613	-0.723482
     29091.93	0.11873	1881407.0	1507889.0	3107973.0	0.221309	-0.723260
     29092.41	0.12652	2012778.0	1612853.0	3324454.0	0.221511	-0.723301
     29092.90	0.12485	1984855.0	1590140.0	3277231.0	0.221724	-0.723177
     29093.39	0.13030	2065048.0	1655133.0	3410565.0	0.221272	-0.722997
     29093.87	0.12463	1982980.0	1589049.0	3274495.0	0.221465	-0.723028
     29094.36	0.12717	2018470.0	1617862.0	3332976.0	0.221234	-0.722760
     29094.85	0.13001	2065126.0	1654925.0	3409147.0	0.221436	-0.722706
     29095.33	0.13268	2096139.0	1679722.0	3460469.0	0.221469	-0.722776
     29095.82	0.12459	1976134.0	1583492.0	3261557.0	0.221510	-0.722572
     29096.31	0.13178	2088326.0	1673646.0	3446734.0	0.221358	-0.722423
     29096.79	0.13470	2138264.0	1713834.0	3528815.0	0.221261	-0.722229
     29097.28	0.12304	1948262.0	1561347.0	3215395.0	0.221389	-0.722401
     29097.77	0.13043	2069780.0	1659156.0	3416064.0	0.221133	-0.722180
     29098.25	0.12536	1986625.0	1592101.0	3278062.0	0.221383	-0.722198
     29098.74	0.12935	2048918.0	1642212.0	3380448.0	0.221268	-0.721964
     29099.23	0.11728	1858517.0	1489767.0	3066943.0	0.221159	-0.722062
     29099.71	0.12725	2014669.0	1614307.0	3323278.0	0.221549	-0.722046
     29100.20	0.11372	1801954.0	1444654.0	2973114.0	0.221002	-0.721740
     29100.69	0.13362	2110926.0	1692602.0	3483430.0	0.220860	-0.721750
     29101.17	0.11957	1887387.0	1512791.0	3112718.0	0.221237	-0.721540
     29101.66	0.13647	2164986.0	1735457.0	3570436.0	0.221143	-0.721417
     29102.15	0.10667	1686406.0	1351823.0	2780565.0	0.221146	-0.721200
     29102.64	0.12273	1942409.0	1557202.0	3203097.0	0.221038	-0.721228
     29103.12	0.11066	1747767.0	1401356.0	2881496.0	0.220899	-0.720869
     29103.61	0.10558	1667554.0	1336603.0	2748636.0	0.221227	-0.720973
     29104.10	0.11758	1848077.0	1481521.0	3045270.0	0.221076	-0.720520
     29104.58	0.12024	1891251.0	1516558.0	3116700.0	0.220795	-0.720331
     29105.07	0.11512	1816621.0	1456456.0	2993819.0	0.220972	-0.720544
     29105.56	0.11315	1790428.0	1435456.0	2949912.0	0.220972	-0.720293
     29106.04	0.13138	2073317.0	1662297.0	3415973.0	0.220949	-0.720262
     29106.53	0.13320	2103616.0	1685951.0	3464101.0	0.221328	-0.720123
     29107.02	0.12235	1936508.0	1552605.0	3189161.0	0.220952	-0.719824
     29107.51	0.11876	1876761.0	1504703.0	3090304.0	0.220952	-0.719674
     29107.99	0.13872	2194438.0	1759465.0	3613780.0	0.220916	-0.719745
     29108.48	0.13283	2096932.0	1681689.0	3453146.0	0.220677	-0.719487
     29108.97	0.13062	2061849.0	1653586.0	3394910.0	0.220657	-0.719331
     29109.46	0.13038	2060265.0	1652314.0	3391443.0	0.220658	-0.719079
     29109.94	0.12396	1954200.0	1567430.0	3216404.0	0.220544	-0.718827
     29110.43	0.12865	2040034.0	1636254.0	3357243.0	0.220557	-0.718711
     29110.92	0.12249	1935624.0	1552707.0	3184961.0	0.220430	-0.718440
     29111.40	0.13623	2156863.0	1729233.0	3547297.0	0.220977	-0.718508
     29111.89	0.12152	1927212.0	1545670.0	3170033.0	0.220617	-0.718285
     29112.38	0.13259	2090590.0	1676287.0	3436900.0	0.220865	-0.717989
     29112.87	0.13193	2083083.0	1670892.0	3424623.0	0.220491	-0.717634
     29113.35	0.13316	2111788.0	1693315.0	3470604.0	0.220847	-0.717640
     29113.84	0.13930	2197367.0	1762320.0	3611113.0	0.220629	-0.717385
     29114.33	0.13752	2168352.0	1739257.0	3563804.0	0.220509	-0.717371
     29114.82	0.13206	2087704.0	1674660.0	3430528.0	0.220455	-0.717104
     29115.30	0.13021	2066856.0	1657945.0	3395826.0	0.220450	-0.716968
     29115.79	0.12941	2049445.0	1643892.0	3366022.0	0.220502	-0.716665
     29116.28	0.13409	2118863.0	1699629.0	3479958.0	0.220470	-0.716610
     29116.77	0.12859	2027711.0	1626645.0	3328419.0	0.220388	-0.715978
     29117.25	0.12420	1967085.0	1577674.0	3227541.0	0.220601	-0.715769
     29117.74	0.12486	1976257.0	1584996.0	3243024.0	0.220623	-0.715924
     29118.23	0.12277	1934259.0	1551396.0	3172568.0	0.220569	-0.715386
     29118.72	0.12873	2038990.0	1635619.0	3344191.0	0.220433	-0.715203
     29119.20	0.12083	1913887.0	1535320.0	3137770.0	0.220397	-0.714774
     29119.69	0.11920	1876040.0	1504879.0	3075870.0	0.220451	-0.714875
     29120.18	0.13130	2076949.0	1665940.0	3404119.0	0.220510	-0.714597
     29120.67	0.12171	1926732.0	1545598.0	3157639.0	0.220414	-0.714414
     29121.15	0.13225	2087878.0	1674824.0	3420473.0	0.220440	-0.714071
     29121.64	0.10824	1708255.0	1370502.0	2797729.0	0.220295	-0.713631
     29122.13	0.13642	2147662.0	1722793.0	3516111.0	0.220433	-0.713409
     29122.62	0.11797	1866738.0	1497406.0	3055661.0	0.220458	-0.713262
     29123.10	0.11994	1898501.0	1523111.0	3105832.0	0.220310	-0.712527
     29123.59	0.11772	1851613.0	1486025.0	3030364.0	0.219952	-0.712578
     29124.08	0.12029	1898991.0	1523271.0	3104795.0	0.220463	-0.712088
     29124.57	0.12847	2033443.0	1631310.0	3324614.0	0.220347	-0.711970
     29125.06	0.11599	1833311.0	1471001.0	2996733.0	0.220181	-0.711580
     29125.54	0.12902	2041496.0	1638340.0	3336284.0	0.219999	-0.711174
