# Diamond Light Source
# Instrument: B18-CORE XAS Date: Thu, 28 Jul 2016 02:19:54 BST
# Ring energy:   3.0
# Ring current - start: 298.5
# Primary slits:  vertical gap=  2.4; horizontal gap= 52.0; vertical offset=  0.4; horizontal offset= -1.0
# Secondary slits:  vertical gap=  3.5; horizontal gap= 23.0; vertical offset=  5.3; horizontal offset= -14.5
# OH Mirror Coating: Pt
# White beam filter: 140um PyC
# Crystal cut: Si(311)
# PostDCM slits:  vertical gap= 18.0; horizontal gap= 28.0; vertical offset= -9.1; horizontal offset= -16.5
# Experimental slits:  vertical gap= 28.6; horizontal gap= 45.0; vertical offset=  5.7; horizontal offset= -17.5
# HR Mirror : out; Y: 37.8; Pitch:  0.3; Coating: Pt
# Mirror 2: Pitch:  2.3; Height: -6.4; Yaw: -1.6; Bend:  0.8;
# I0 Stanford sensitivity: 20 nA/V Offsets: 20 pA
# It Stanford sensitivity: 100 nA/V Offsets: 1 pA
# Iref Stanford sensitivity: 20 nA/V Offsets: 1 pA
#
# Ascii output file name: 'Andrea_Sn//ascii/262926_PtSn_OC_H2_Abu_1.dat'
# Nexus output file: '/dls/b18/data/2016/sp10306-9/Andrea_Sn//nexus/262926_PtSn_OC_H2_Abu_1.nxs'
# XML folder and files:
# /dls/b18/data/2016/sp10306-9/xml/Andrea_Sn/
# QEXAFS_Parameters
# Sample_Parameters
# Detector_Parameters
# Output_Parameters
# The contents of these files are also stored in the nexus file.
#
# Sample name: PtSn_OC_H2_Abu
# Sample description: default sample description
# Additional comments: default additional comments
# command: qexafs_energy 29000.0 30050.0 2094 263.53 qexafs_counterTimer01
#
#
# qexafs_energy	   time	       I0	       It	     Iref	  lnI0It	 lnItIref
     29000.24	0.14153	2258986.0	1777101.0	3675444.0	0.239933	-0.726691
     29000.73	0.19192	3068690.0	2413388.0	4992162.0	0.240219	-0.726838
     29001.21	0.10904	1746235.0	1373327.0	2840291.0	0.240226	-0.726670
     29001.69	0.092212	1468631.0	1155380.0	2389553.0	0.239901	-0.726677
     29002.18	0.11572	1847324.0	1453058.0	3005685.0	0.240068	-0.726835
     29002.66	0.13767	2195152.0	1727006.0	3571759.0	0.239862	-0.726669
     29003.14	0.13308	2121724.0	1668954.0	3451993.0	0.240032	-0.726755
     29003.63	0.11732	1877359.0	1476997.0	3055033.0	0.239855	-0.726779
     29004.11	0.12202	1951952.0	1535542.0	3176301.0	0.239946	-0.726834
     29004.59	0.13027	2082544.0	1638791.0	3389958.0	0.239631	-0.726859
     29005.08	0.12991	2075927.0	1633776.0	3379148.0	0.239514	-0.726730
     29005.56	0.12444	1984042.0	1561062.0	3229080.0	0.239770	-0.726831
     29006.05	0.12848	2050324.0	1613084.0	3337409.0	0.239850	-0.727047
     29006.53	0.12252	1949746.0	1533895.0	3173084.0	0.239889	-0.726894
     29007.01	0.12189	1929808.0	1518977.0	3142331.0	0.239383	-0.726928
     29007.50	0.12884	2064140.0	1624188.0	3359127.0	0.239706	-0.726673
     29007.98	0.11964	1907574.0	1501102.0	3105657.0	0.239633	-0.727026
     29008.46	0.13495	2145849.0	1689248.0	3494458.0	0.239252	-0.726895
     29008.95	0.10300	1636445.0	1287775.0	2663855.0	0.239610	-0.726858
     29009.43	0.11889	1898109.0	1494040.0	3090479.0	0.239374	-0.726842
     29009.92	0.12562	2009281.0	1581369.0	3271853.0	0.239486	-0.727066
     29010.40	0.11999	1926368.0	1516479.0	3136334.0	0.239245	-0.726663
     29010.88	0.12449	1983944.0	1561804.0	3230461.0	0.239245	-0.726783
     29011.37	0.13438	2144373.0	1687941.0	3491777.0	0.239338	-0.726901
     29011.85	0.12069	1927916.0	1517702.0	3139671.0	0.239242	-0.726921
     29012.34	0.12499	2005535.0	1578652.0	3264820.0	0.239340	-0.726633
     29012.82	0.12899	2071847.0	1631185.0	3373924.0	0.239134	-0.726770
     29013.30	0.12315	1977921.0	1557251.0	3221011.0	0.239124	-0.726773
     29013.79	0.13055	2090163.0	1645529.0	3404669.0	0.239180	-0.727086
     29014.27	0.13056	2095372.0	1649930.0	3413216.0	0.238998	-0.726922
     29014.76	0.13327	2138753.0	1684255.0	3484225.0	0.238900	-0.726922
     29015.24	0.12914	2067682.0	1628162.0	3368297.0	0.238976	-0.726956
     29015.72	0.12121	1940108.0	1527378.0	3160003.0	0.239191	-0.727020
     29016.21	0.10972	1758047.0	1384159.0	2863586.0	0.239111	-0.726982
     29016.69	0.12756	2048885.0	1613030.0	3336569.0	0.239181	-0.726829
     29017.18	0.12159	1947207.0	1533720.0	3172857.0	0.238700	-0.726936
     29017.66	0.13421	2151068.0	1694092.0	3505012.0	0.238818	-0.727047
     29018.14	0.13015	2088083.0	1644426.0	3401692.0	0.238855	-0.726882
     29018.63	0.12988	2085341.0	1642626.0	3398200.0	0.238636	-0.726950
     29019.11	0.12518	2008926.0	1582714.0	3274824.0	0.238459	-0.727123
     29019.60	0.13399	2144128.0	1688606.0	3493980.0	0.238830	-0.727138
     29020.08	0.13065	2084497.0	1641722.0	3396672.0	0.238782	-0.727050
     29020.57	0.12447	1997043.0	1572773.0	3254134.0	0.238827	-0.727086
     29021.05	0.13050	2085554.0	1642892.0	3398220.0	0.238576	-0.726794
     29021.53	0.12336	1976780.0	1556850.0	3221437.0	0.238805	-0.727163
     29022.02	0.13197	2111923.0	1663277.0	3440941.0	0.238809	-0.726955
     29022.50	0.13128	2096070.0	1651174.0	3416164.0	0.238578	-0.727032
     29022.99	0.12537	2002564.0	1577530.0	3263278.0	0.238568	-0.726872
     29023.47	0.14956	2387073.0	1880449.0	3889051.0	0.238557	-0.726655
     29023.96	0.099585	1594682.0	1256231.0	2599172.0	0.238558	-0.727077
     29024.44	0.10567	1694370.0	1334598.0	2760575.0	0.238681	-0.726809
     29024.92	0.12144	1941100.0	1529010.0	3163086.0	0.238634	-0.726928
     29025.41	0.12887	2069256.0	1630537.0	3372744.0	0.238280	-0.726817
     29025.89	0.12222	1951149.0	1537368.0	3180768.0	0.238347	-0.727051
     29026.38	0.12671	2020202.0	1591633.0	3293183.0	0.238437	-0.727094
     29026.86	0.11884	1898667.0	1496112.0	3095066.0	0.238282	-0.726939
     29027.35	0.10750	1728884.0	1362186.0	2818206.0	0.238385	-0.727010
     29027.83	0.11051	1774670.0	1398440.0	2893378.0	0.238257	-0.727067
     29028.32	0.11182	1799677.0	1418330.0	2933594.0	0.238127	-0.726748
     29028.80	0.11542	1847483.0	1455617.0	3012061.0	0.238394	-0.727195
     29029.28	0.11812	1891862.0	1490900.0	3083979.0	0.238182	-0.726841
     29029.77	0.13483	2162239.0	1704510.0	3525503.0	0.237867	-0.726745
     29030.25	0.13914	2228154.0	1755908.0	3632597.0	0.238187	-0.726962
     29030.74	0.13138	2104498.0	1658751.0	3430385.0	0.238012	-0.726608
     29031.22	0.12230	1955276.0	1541212.0	3188760.0	0.237962	-0.727063
     29031.71	0.11267	1795990.0	1415738.0	2928394.0	0.237905	-0.726803
     29032.19	0.12835	2051040.0	1616728.0	3344990.0	0.237943	-0.727059
     29032.68	0.13853	2214774.0	1745585.0	3611306.0	0.238061	-0.726980
     29033.16	0.12273	1971854.0	1554159.0	3215049.0	0.238040	-0.726908
     29033.65	0.14217	2283544.0	1799910.0	3723748.0	0.237992	-0.726994
     29034.13	0.16829	2701923.0	2129758.0	4406440.0	0.237955	-0.727059
     29034.62	0.11481	1843500.0	1453136.0	3006102.0	0.237942	-0.726920
     29035.10	0.090433	1456165.0	1147965.0	2374512.0	0.237815	-0.726801
     29035.58	0.12527	1994972.0	1572943.0	3254087.0	0.237682	-0.726963
     29036.07	0.12641	2022095.0	1594281.0	3298571.0	0.237711	-0.727066
     29036.55	0.14068	2247445.0	1771613.0	3666063.0	0.237904	-0.727228
     29037.04	0.13877	2230883.0	1759247.0	3638941.0	0.237512	-0.726807
     29037.52	0.12851	2066304.0	1628892.0	3370274.0	0.237861	-0.727094
     29038.01	0.13561	2169422.0	1710294.0	3538122.0	0.237795	-0.726931
     29038.49	0.14118	2246723.0	1771379.0	3665601.0	0.237714	-0.727234
     29038.98	0.11723	1872344.0	1475971.0	3054221.0	0.237875	-0.727208
     29039.46	0.13905	2221924.0	1751706.0	3623086.0	0.237783	-0.726736
     29039.95	0.12461	1997504.0	1575025.0	3258225.0	0.237627	-0.726911
     29040.43	0.12639	2029318.0	1600316.0	3310844.0	0.237499	-0.727002
     29040.92	0.12447	1994269.0	1572973.0	3253539.0	0.237310	-0.726776
     29041.40	0.13069	2100791.0	1656895.0	3427959.0	0.237369	-0.727020
     29041.89	0.12460	2000651.0	1577493.0	3262728.0	0.237636	-0.726727
     29042.37	0.12601	2013588.0	1588100.0	3285340.0	0.237380	-0.726932
     29042.86	0.11889	1899632.0	1498373.0	3099770.0	0.237280	-0.726948
     29043.34	0.13468	2164404.0	1707115.0	3531184.0	0.237340	-0.726828
     29043.83	0.12189	1959776.0	1545674.0	3197188.0	0.237370	-0.726812
     29044.31	0.13136	2099084.0	1655923.0	3425825.0	0.237143	-0.726984
     29044.80	0.12046	1931897.0	1523739.0	3151703.0	0.237335	-0.726776
     29045.28	0.12751	2047406.0	1614886.0	3340752.0	0.237309	-0.726932
     29045.77	0.11779	1890376.0	1491385.0	3084576.0	0.237071	-0.726709
     29046.25	0.10432	1674844.0	1321576.0	2733672.0	0.236895	-0.726821
     29046.74	0.12865	2069121.0	1632535.0	3376238.0	0.236990	-0.726628
     29047.22	0.12472	1998642.0	1576751.0	3260306.0	0.237102	-0.726455
     29047.71	0.11702	1881235.0	1484104.0	3069370.0	0.237117	-0.726661
     29048.19	0.13361	2142996.0	1690838.0	3497087.0	0.236981	-0.726706
     29048.68	0.11259	1793016.0	1415178.0	2927145.0	0.236644	-0.726772
     29049.16	0.12273	1963658.0	1549158.0	3204391.0	0.237098	-0.726810
     29049.65	0.12570	2017153.0	1591598.0	3291604.0	0.236949	-0.726636
     29050.13	0.13811	2216445.0	1748301.0	3616206.0	0.237260	-0.726781
     29050.62	0.12389	1985492.0	1566975.0	3240687.0	0.236720	-0.726638
     29051.10	0.13188	2115692.0	1669925.0	3452705.0	0.236603	-0.726379
     29051.59	0.12436	1982881.0	1565051.0	3237247.0	0.236632	-0.726805
     29052.08	0.13566	2165734.0	1709213.0	3535524.0	0.236726	-0.726828
     29052.56	0.13100	2089971.0	1649320.0	3410966.0	0.236787	-0.726632
     29053.05	0.11061	1762290.0	1391298.0	2876779.0	0.236377	-0.726434
     29053.53	0.12240	1958956.0	1545924.0	3196540.0	0.236790	-0.726447
     29054.02	0.12968	2067419.0	1631987.0	3374717.0	0.236503	-0.726513
     29054.50	0.13075	2100748.0	1658585.0	3429378.0	0.236329	-0.726414
     29054.99	0.12969	2075532.0	1637838.0	3386646.0	0.236840	-0.726463
     29055.47	0.12546	2014998.0	1591140.0	3289812.0	0.236167	-0.726380
     29055.96	0.13111	2092838.0	1651845.0	3415639.0	0.236628	-0.726472
     29056.44	0.13030	2087722.0	1648043.0	3407271.0	0.236485	-0.726323
     29056.93	0.12439	1992648.0	1572690.0	3251684.0	0.236677	-0.726385
     29057.41	0.11493	1847023.0	1457890.0	3014978.0	0.236585	-0.726602
     29057.90	0.14344	2298904.0	1814985.0	3751765.0	0.236355	-0.726149
     29058.39	0.12837	2065669.0	1630750.0	3372051.0	0.236414	-0.726481
     29058.87	0.12414	1992552.0	1572947.0	3251755.0	0.236465	-0.726244
     29059.36	0.12737	2045793.0	1615068.0	3338997.0	0.236408	-0.726293
     29059.84	0.12731	2037504.0	1608684.0	3326185.0	0.236309	-0.726410
     29060.33	0.13130	2107553.0	1663942.0	3439985.0	0.236338	-0.726278
     29060.81	0.11288	1817399.0	1434992.0	2966450.0	0.236247	-0.726207
     29061.30	0.11919	1906820.0	1505496.0	3112667.0	0.236315	-0.726358
     29061.78	0.12666	2041740.0	1612114.0	3332499.0	0.236256	-0.726176
     29062.27	0.12830	2058985.0	1625919.0	3361494.0	0.236140	-0.726312
     29062.76	0.12057	1932869.0	1526007.0	3154649.0	0.236351	-0.726223
     29063.24	0.12373	1981784.0	1564960.0	3235650.0	0.236137	-0.726370
     29063.73	0.13030	2093638.0	1653499.0	3417529.0	0.236010	-0.726024
     29064.21	0.14123	2269884.0	1792074.0	3704715.0	0.236355	-0.726233
     29064.70	0.086420	1390712.0	1098362.0	2270322.0	0.235996	-0.726102
     29065.18	0.10602	1701055.0	1343545.0	2776600.0	0.235937	-0.725916
     29065.67	0.096464	1547900.0	1222424.0	2526038.0	0.236063	-0.725816
     29066.16	0.12384	1982502.0	1565919.0	3236533.0	0.235887	-0.726030
     29066.64	0.11387	1834216.0	1448468.0	2993560.0	0.236111	-0.725957
     29067.13	0.14360	2306537.0	1822055.0	3766132.0	0.235782	-0.726083
     29067.61	0.13154	2107629.0	1664981.0	3440909.0	0.235750	-0.725922
     29068.10	0.14842	2380616.0	1880483.0	3886031.0	0.235831	-0.725860
     29068.59	0.091711	1466569.0	1158377.0	2393571.0	0.235906	-0.725767
     29069.07	0.12186	1951033.0	1541396.0	3185304.0	0.235670	-0.725859
     29069.56	0.12687	2027904.0	1602303.0	3311010.0	0.235561	-0.725811
     29070.04	0.13838	2216901.0	1751470.0	3618397.0	0.235655	-0.725576
     29070.53	0.12411	1995023.0	1576250.0	3257151.0	0.235607	-0.725804
     29071.01	0.13428	2155260.0	1702879.0	3518153.0	0.235591	-0.725616
     29071.50	0.19896	3191574.0	2521145.0	5208960.0	0.235801	-0.725667
     29071.99	0.095620	1531844.0	1210330.0	2500692.0	0.235579	-0.725674
     29072.47	0.095745	1535523.0	1213241.0	2506509.0	0.235576	-0.725596
     29072.96	0.11764	1882537.0	1487595.0	3073602.0	0.235460	-0.725689
     29073.44	0.12818	2043333.0	1614638.0	3335566.0	0.235472	-0.725532
     29073.93	0.13032	2087828.0	1649600.0	3407734.0	0.235591	-0.725515
     29074.42	0.14245	2291443.0	1810834.0	3740308.0	0.235394	-0.725380
     29074.90	0.13224	2120372.0	1675855.0	3462171.0	0.235268	-0.725572
     29075.39	0.16286	2604164.0	2057862.0	4250388.0	0.235444	-0.725343
     29075.87	0.14334	2297334.0	1815960.0	3749821.0	0.235135	-0.725094
     29076.36	0.10362	1660430.0	1312384.0	2710249.0	0.235231	-0.725195
     29076.85	0.12127	1946521.0	1538306.0	3176742.0	0.235362	-0.725174
     29077.33	0.12843	2062020.0	1629978.0	3365485.0	0.235120	-0.725006
     29077.82	0.13095	2100495.0	1660402.0	3427511.0	0.235113	-0.724775
     29078.31	0.13143	2094849.0	1655482.0	3417856.0	0.235389	-0.724921
     29078.79	0.12206	1965240.0	1553197.0	3206495.0	0.235299	-0.724863
     29079.28	0.15148	2429394.0	1920322.0	3965218.0	0.235149	-0.725068
     29079.76	0.10612	1707848.0	1349995.0	2786062.0	0.235133	-0.724528
     29080.25	0.11827	1892709.0	1495999.0	3087936.0	0.235215	-0.724709
     29080.74	0.12624	2029861.0	1604522.0	3311609.0	0.235141	-0.724608
     29081.22	0.13330	2133658.0	1686608.0	3480911.0	0.235118	-0.724575
     29081.71	0.12724	2038525.0	1611723.0	3326306.0	0.234923	-0.724559
     29082.20	0.12548	2017028.0	1594539.0	3291222.0	0.235040	-0.724674
     29082.68	0.12352	1983197.0	1568170.0	3235901.0	0.234801	-0.724398
     29083.17	0.11514	1849787.0	1462211.0	3017584.0	0.235121	-0.724507
     29083.65	0.12742	2049738.0	1620492.0	3343888.0	0.234982	-0.724404
     29084.14	0.11668	1873680.0	1481134.0	3056658.0	0.235096	-0.724514
     29084.63	0.12890	2072383.0	1638020.0	3379493.0	0.235211	-0.724238
     29085.11	0.11481	1833655.0	1449975.0	2991378.0	0.234765	-0.724188
     29085.60	0.12639	2031547.0	1606259.0	3313758.0	0.234890	-0.724175
     29086.09	0.11990	1925424.0	1522007.0	3139813.0	0.235116	-0.724133
     29086.57	0.12776	2049030.0	1620281.0	3341803.0	0.234767	-0.723911
     29087.06	0.11888	1908418.0	1508807.0	3112178.0	0.234955	-0.724004
     29087.55	0.12817	2056516.0	1626711.0	3355383.0	0.234453	-0.724006
     29088.03	0.13113	2104682.0	1664362.0	3431782.0	0.234723	-0.723638
     29088.52	0.13016	2073311.0	1639654.0	3381937.0	0.234662	-0.723963
     29089.01	0.13461	2160669.0	1709049.0	3523682.0	0.234481	-0.723569
     29089.49	0.13099	2097694.0	1659151.0	3420758.0	0.234533	-0.723556
     29089.98	0.12193	1955524.0	1546488.0	3188005.0	0.234672	-0.723409
     29090.47	0.12800	2056479.0	1626058.0	3352125.0	0.234837	-0.723436
     29090.95	0.12290	1973765.0	1560653.0	3216743.0	0.234839	-0.723265
     29091.44	0.12112	1942042.0	1536069.0	3164973.0	0.234513	-0.722918
     29091.93	0.12147	1945238.0	1538678.0	3170064.0	0.234461	-0.722828
     29092.41	0.12586	2014045.0	1592700.0	3281879.0	0.234714	-0.722985
     29092.90	0.13258	2125466.0	1681089.0	3463174.0	0.234549	-0.722744
     29093.39	0.12905	2063415.0	1632183.0	3362633.0	0.234444	-0.722806
     29093.87	0.12700	2037068.0	1611225.0	3318882.0	0.234517	-0.722633
     29094.36	0.13307	2134067.0	1688208.0	3477238.0	0.234362	-0.722571
     29094.85	0.12982	2082565.0	1646890.0	3392546.0	0.234712	-0.722692
     29095.33	0.12094	1929884.0	1526685.0	3143754.0	0.234361	-0.722319
     29095.82	0.13054	2086601.0	1651021.0	3399709.0	0.234143	-0.722296
     29096.31	0.12849	2056827.0	1627406.0	3350770.0	0.234177	-0.722203
     29096.79	0.13319	2138350.0	1691323.0	3481850.0	0.234523	-0.722053
     29097.28	0.12823	2055203.0	1626069.0	3347902.0	0.234209	-0.722168
     29097.77	0.13952	2238918.0	1770504.0	3644588.0	0.234728	-0.721979
     29098.25	0.11057	1773778.0	1403718.0	2888290.0	0.233987	-0.721540
     29098.74	0.13055	2092164.0	1655470.0	3406662.0	0.234114	-0.721648
     29099.23	0.11155	1786944.0	1413804.0	2909351.0	0.234223	-0.721646
     29099.71	0.11700	1874921.0	1483268.0	3051918.0	0.234319	-0.721522
     29100.20	0.13044	2087152.0	1651504.0	3398138.0	0.234114	-0.721541
     29100.69	0.12250	1963285.0	1553462.0	3195967.0	0.234133	-0.721404
     29101.17	0.12652	2023311.0	1601369.0	3294302.0	0.233876	-0.721335
     29101.66	0.12608	2008350.0	1589584.0	3269296.0	0.233841	-0.721102
     29102.15	0.11398	1813002.0	1435054.0	2950405.0	0.233782	-0.720740
     29102.64	0.10860	1736879.0	1374639.0	2826058.0	0.233899	-0.720692
     29103.12	0.10944	1747404.0	1382907.0	2843303.0	0.233943	-0.720779
     29103.61	0.11151	1779644.0	1408603.0	2895887.0	0.233815	-0.720693
     29104.10	0.12218	1948021.0	1541638.0	3167663.0	0.233968	-0.720149
     29104.58	0.10808	1724250.0	1364621.0	2804087.0	0.233915	-0.720201
     29105.07	0.13467	2151404.0	1702587.0	3498056.0	0.233972	-0.720059
     29105.56	0.10939	1744437.0	1380635.0	2836443.0	0.233888	-0.720007
     29106.04	0.13113	2090609.0	1654554.0	3398497.0	0.233924	-0.719802
     29106.53	0.12594	2009845.0	1590669.0	3266282.0	0.233903	-0.719498
     29107.02	0.11476	1828184.0	1447120.0	2971765.0	0.233748	-0.719581
     29107.51	0.13654	2176088.0	1722833.0	3537314.0	0.233559	-0.719398
     29107.99	0.12220	1949744.0	1543386.0	3167839.0	0.233719	-0.719071
     29108.48	0.13711	2183180.0	1728870.0	3548525.0	0.233315	-0.719064
     29108.97	0.12936	2067833.0	1636854.0	3358374.0	0.233725	-0.718681
     29109.46	0.14450	2304817.0	1824745.0	3744063.0	0.233561	-0.718731
     29109.94	0.12360	1971535.0	1561103.0	3202407.0	0.233420	-0.718510
     29110.43	0.12448	1989353.0	1574596.0	3229447.0	0.233811	-0.718312
     29110.92	0.12459	1978088.0	1565993.0	3210724.0	0.233611	-0.717976
     29111.40	0.12194	1945943.0	1540640.0	3157835.0	0.233549	-0.717689
     29111.89	0.13572	2166457.0	1715277.0	3515876.0	0.233519	-0.717714
     29112.38	0.13226	2101262.0	1663742.0	3409849.0	0.233469	-0.717599
     29112.87	0.12546	2001180.0	1584367.0	3246327.0	0.233552	-0.717339
     29113.35	0.13611	2172301.0	1720053.0	3523150.0	0.233432	-0.717000
     29113.84	0.13641	2172983.0	1720434.0	3523447.0	0.233524	-0.716863
     29114.33	0.13578	2162149.0	1712002.0	3504918.0	0.233439	-0.716504
     29114.82	0.13291	2111439.0	1671949.0	3423187.0	0.233380	-0.716582
     29115.30	0.13246	2109340.0	1670574.0	3419388.0	0.233208	-0.716294
     29115.79	0.13263	2114359.0	1673953.0	3425742.0	0.233564	-0.716130
     29116.28	0.13769	2199953.0	1742139.0	3564272.0	0.233322	-0.715846
     29116.77	0.12476	1968122.0	1558265.0	3187211.0	0.233507	-0.715573
     29117.25	0.13457	2123970.0	1681923.0	3439572.0	0.233349	-0.715409
     29117.74	0.12484	1977062.0	1565245.0	3200126.0	0.233570	-0.715148
     29118.23	0.12058	1907955.0	1511489.0	3088520.0	0.232937	-0.714597
     29118.72	0.12665	2010600.0	1592647.0	3253637.0	0.233036	-0.714376
     29119.20	0.11556	1833814.0	1452197.0	2966229.0	0.233320	-0.714214
     29119.69	0.13170	2092576.0	1657174.0	3384693.0	0.233282	-0.714149
     29120.18	0.12259	1944732.0	1540426.0	3145373.0	0.233065	-0.713873
     29120.67	0.11845	1874460.0	1484322.0	3029669.0	0.233363	-0.713495
     29121.15	0.13590	2165618.0	1715178.0	3500656.0	0.233189	-0.713434
     29121.64	0.11585	1845206.0	1461903.0	2981743.0	0.232852	-0.712769
     29122.13	0.11280	1794539.0	1421390.0	2899000.0	0.233113	-0.712731
     29122.62	0.12956	2057946.0	1629877.0	3323025.0	0.233204	-0.712371
     29123.10	0.11936	1885749.0	1493310.0	3044277.0	0.233330	-0.712268
     29123.59	0.11494	1817212.0	1438939.0	2932209.0	0.233397	-0.711850
     29124.08	0.12381	1957581.0	1550284.0	3157712.0	0.233271	-0.711410
     29124.57	0.12330	1955626.0	1548989.0	3154658.0	0.233108	-0.711278
     29125.06	0.12412	1977100.0	1565488.0	3186634.0	0.233434	-0.710768
     29125.54	0.11270	1793184.0	1420126.0	2890090.0	0.233247	-0.710542
