# Diamond Light Source
# Instrument: B18-CORE XAS Date: Thu, 28 Jul 2016 02:24:57 BST
# Ring energy:   3.0
# Ring current - start: 299.9
# Primary slits:  vertical gap=  2.4; horizontal gap= 52.0; vertical offset=  0.4; horizontal offset= -1.0
# Secondary slits:  vertical gap=  3.5; horizontal gap= 23.0; vertical offset=  5.3; horizontal offset= -14.5
# OH Mirror Coating: Pt
# White beam filter: 140um PyC
# Crystal cut: Si(311)
# PostDCM slits:  vertical gap= 18.0; horizontal gap= 28.0; vertical offset= -9.1; horizontal offset= -16.5
# Experimental slits:  vertical gap= 28.6; horizontal gap= 45.0; vertical offset=  5.7; horizontal offset= -17.5
# HR Mirror : out; Y: 37.8; Pitch:  0.3; Coating: Pt
# Mirror 2: Pitch:  2.3; Height: -6.4; Yaw: -1.6; Bend:  0.8;
# I0 Stanford sensitivity: 20 nA/V Offsets: 20 pA
# It Stanford sensitivity: 100 nA/V Offsets: 1 pA
# Iref Stanford sensitivity: 20 nA/V Offsets: 1 pA
#
# Ascii output file name: 'Andrea_Sn//ascii/262927_PtSn_OC_H2_Abu_2.dat'
# Nexus output file: '/dls/b18/data/2016/sp10306-9/Andrea_Sn//nexus/262927_PtSn_OC_H2_Abu_2.nxs'
# XML folder and files:
# /dls/b18/data/2016/sp10306-9/xml/Andrea_Sn/
# QEXAFS_Parameters
# Sample_Parameters
# Detector_Parameters
# Output_Parameters
# The contents of these files are also stored in the nexus file.
#
# Sample name: PtSn_OC_H2_Abu
# Sample description: default sample description
# Additional comments: default additional comments
# command: qexafs_energy 29000.0 30050.0 2094 263.53 qexafs_counterTimer01
#
#
# qexafs_energy	   time	       I0	       It	     Iref	  lnI0It	 lnItIref
     29000.24	0.13144	2117763.0	1665772.0	3444785.0	0.240072	-0.726573
     29000.73	0.19948	3207701.0	2523215.0	5218374.0	0.240021	-0.726652
     29001.21	0.11072	1775537.0	1396887.0	2888993.0	0.239857	-0.726662
     29001.69	0.085887	1378118.0	1083879.0	2241135.0	0.240173	-0.726436
     29002.18	0.12485	2006916.0	1579142.0	3265715.0	0.239718	-0.726597
     29002.66	0.13417	2148303.0	1690476.0	3495487.0	0.239668	-0.726463
     29003.14	0.13181	2122700.0	1669614.0	3453218.0	0.240096	-0.726714
     29003.63	0.12826	2063065.0	1622793.0	3355747.0	0.240044	-0.726526
     29004.11	0.12112	1944891.0	1530195.0	3164017.0	0.239811	-0.726447
     29004.59	0.13093	2106678.0	1657305.0	3427933.0	0.239920	-0.726765
     29005.08	0.12414	1997640.0	1571578.0	3251035.0	0.239886	-0.726893
     29005.56	0.12301	1972617.0	1551912.0	3210031.0	0.239873	-0.726793
     29006.05	0.12505	2011673.0	1583299.0	3274073.0	0.239456	-0.726524
     29006.53	0.12647	2038079.0	1603202.0	3316048.0	0.240005	-0.726771
     29007.01	0.13033	2097109.0	1649825.0	3412202.0	0.239891	-0.726689
     29007.50	0.11845	1906088.0	1499592.0	3101864.0	0.239860	-0.726810
     29007.98	0.12887	2074308.0	1632367.0	3376352.0	0.239596	-0.726765
     29008.46	0.12679	2040573.0	1605674.0	3321155.0	0.239687	-0.726769
     29008.95	0.10374	1671310.0	1315260.0	2720355.0	0.239573	-0.726728
     29009.43	0.12462	2004244.0	1577425.0	3262008.0	0.239473	-0.726549
     29009.92	0.11642	1874001.0	1474903.0	3050194.0	0.239483	-0.726613
     29010.40	0.12819	2069638.0	1628626.0	3368256.0	0.239637	-0.726658
     29010.88	0.12324	1990168.0	1566109.0	3238961.0	0.239625	-0.726658
     29011.37	0.13024	2094070.0	1648223.0	3408763.0	0.239412	-0.726652
     29011.85	0.12940	2088307.0	1644105.0	3399731.0	0.239158	-0.726500
     29012.34	0.11830	1909292.0	1502773.0	3107787.0	0.239420	-0.726599
     29012.82	0.12953	2092442.0	1647331.0	3407209.0	0.239175	-0.726737
     29013.30	0.12668	2039339.0	1605136.0	3319296.0	0.239417	-0.726544
     29013.79	0.13599	2199757.0	1731910.0	3582106.0	0.239122	-0.726726
     29014.27	0.13367	2160725.0	1701012.0	3517304.0	0.239220	-0.726471
     29014.76	0.11654	1887589.0	1486019.0	3074055.0	0.239200	-0.726897
     29015.24	0.12868	2080460.0	1638013.0	3387709.0	0.239105	-0.726670
     29015.72	0.12369	2000987.0	1575233.0	3257702.0	0.239237	-0.726619
     29016.21	0.12613	2039477.0	1605425.0	3321029.0	0.239305	-0.726886
     29016.69	0.11970	1935241.0	1523740.0	3152227.0	0.239064	-0.726941
     29017.18	0.12646	2043610.0	1609420.0	3329597.0	0.238844	-0.726977
     29017.66	0.11520	1855347.0	1461069.0	3022024.0	0.238903	-0.726758
     29018.14	0.13447	2169484.0	1708295.0	3533410.0	0.238994	-0.726768
     29018.63	0.12514	2015484.0	1587110.0	3282516.0	0.238945	-0.726695
     29019.11	0.13133	2114271.0	1664516.0	3443141.0	0.239176	-0.726850
     29019.60	0.13764	2217872.0	1746675.0	3612881.0	0.238834	-0.726792
     29020.08	0.13363	2156979.0	1698414.0	3513089.0	0.239014	-0.726801
     29020.57	0.11594	1873784.0	1475483.0	3051429.0	0.238975	-0.726625
     29021.05	0.12537	2021673.0	1592461.0	3293438.0	0.238645	-0.726651
     29021.53	0.13654	2200843.0	1733531.0	3585013.0	0.238680	-0.726602
     29022.02	0.12223	1972008.0	1553212.0	3212885.0	0.238727	-0.726844
     29022.50	0.12958	2091225.0	1647190.0	3406952.0	0.238679	-0.726747
     29022.99	0.12848	2074579.0	1633685.0	3378200.0	0.238920	-0.726505
     29023.47	0.14823	2392139.0	1884346.0	3897653.0	0.238607	-0.726794
     29023.96	0.10296	1663581.0	1310313.0	2709955.0	0.238706	-0.726666
     29024.44	0.11079	1790768.0	1410669.0	2917695.0	0.238581	-0.726730
     29024.92	0.11908	1918356.0	1511142.0	3125771.0	0.238603	-0.726815
     29025.41	0.12574	2031045.0	1600244.0	3309197.0	0.238394	-0.726549
     29025.89	0.12001	1935719.0	1524943.0	3153884.0	0.238522	-0.726678
     29026.38	0.11642	1878035.0	1479753.0	3060880.0	0.238351	-0.726827
     29026.86	0.13195	2127417.0	1676206.0	3466581.0	0.238376	-0.726636
     29027.35	0.10383	1677629.0	1321856.0	2734204.0	0.238345	-0.726804
     29027.83	0.11309	1827071.0	1439826.0	2978094.0	0.238192	-0.726761
     29028.32	0.099876	1613708.0	1271097.0	2629450.0	0.238654	-0.726894
     29028.80	0.12232	1973425.0	1555039.0	3216452.0	0.238270	-0.726778
     29029.28	0.13635	2203466.0	1736304.0	3592135.0	0.238273	-0.726988
     29029.77	0.12716	2053908.0	1618607.0	3347690.0	0.238178	-0.726705
     29030.25	0.11277	1817625.0	1432389.0	2962463.0	0.238187	-0.726677
     29030.74	0.15979	2582049.0	2034523.0	4208039.0	0.238322	-0.726735
     29031.22	0.11055	1787261.0	1408913.0	2914277.0	0.237866	-0.726803
     29031.71	0.11762	1899706.0	1497090.0	3097170.0	0.238176	-0.726966
     29032.19	0.11375	1838022.0	1448321.0	2995795.0	0.238285	-0.726805
     29032.68	0.14579	2352045.0	1854166.0	3834568.0	0.237850	-0.726622
     29033.16	0.12237	1974072.0	1555815.0	3218458.0	0.238099	-0.726903
     29033.65	0.14778	2381296.0	1876853.0	3882840.0	0.238048	-0.726970
     29034.13	0.15969	2566383.0	2022994.0	4184647.0	0.237919	-0.726844
     29034.62	0.12322	1986505.0	1565941.0	3239771.0	0.237890	-0.727016
     29035.10	0.083413	1340407.0	1056448.0	2185385.0	0.238061	-0.726880
     29035.58	0.13797	2221088.0	1750781.0	3621513.0	0.237935	-0.726830
     29036.07	0.12382	1999464.0	1575891.0	3260003.0	0.238058	-0.726907
     29036.55	0.13014	2100727.0	1655600.0	3424847.0	0.238120	-0.726893
     29037.04	0.14595	2354232.0	1855720.0	3838682.0	0.237942	-0.726856
     29037.52	0.13043	2097006.0	1653545.0	3419558.0	0.237589	-0.726590
     29038.01	0.13257	2139760.0	1686653.0	3489160.0	0.237948	-0.726915
     29038.49	0.14665	2357443.0	1858891.0	3845176.0	0.237597	-0.726839
     29038.98	0.11746	1890357.0	1490623.0	3083683.0	0.237572	-0.726931
     29039.46	0.13846	2230357.0	1758327.0	3637014.0	0.237799	-0.726800
     29039.95	0.12376	1993381.0	1572361.0	3252541.0	0.237254	-0.726858
     29040.43	0.12867	2073082.0	1634596.0	3380930.0	0.237641	-0.726755
     29040.92	0.12651	2034274.0	1604219.0	3318428.0	0.237502	-0.726854
     29041.40	0.13167	2120242.0	1671671.0	3457554.0	0.237707	-0.726738
     29041.89	0.12371	1994685.0	1572914.0	3252876.0	0.237556	-0.726610
     29042.37	0.12318	1985036.0	1565721.0	3238110.0	0.237291	-0.726643
     29042.86	0.11543	1858872.0	1466424.0	3033188.0	0.237143	-0.726787
     29043.34	0.13885	2236590.0	1763580.0	3647389.0	0.237607	-0.726666
     29043.83	0.12460	2003027.0	1579600.0	3266689.0	0.237488	-0.726605
     29044.31	0.12039	1940842.0	1530957.0	3165813.0	0.237229	-0.726517
     29044.80	0.12788	2056286.0	1622125.0	3354667.0	0.237164	-0.726615
     29045.28	0.12285	1977964.0	1560365.0	3227103.0	0.237148	-0.726665
     29045.77	0.11530	1854246.0	1462582.0	3025168.0	0.237275	-0.726763
     29046.25	0.11624	1869763.0	1474944.0	3050384.0	0.237192	-0.726647
     29046.74	0.12720	2046768.0	1614616.0	3339023.0	0.237165	-0.726581
     29047.22	0.11991	1931514.0	1523733.0	3151163.0	0.237141	-0.726608
     29047.71	0.11004	1768718.0	1395230.0	2885388.0	0.237196	-0.726600
     29048.19	0.13629	2194569.0	1731439.0	3580750.0	0.237033	-0.726619
     29048.68	0.12843	2068183.0	1631615.0	3373887.0	0.237100	-0.726495
     29049.16	0.11449	1843459.0	1454286.0	3007556.0	0.237129	-0.726613
     29049.65	0.12549	2016326.0	1590885.0	3289725.0	0.236987	-0.726514
     29050.13	0.12976	2088040.0	1647430.0	3406853.0	0.237009	-0.726572
     29050.62	0.13141	2114839.0	1668406.0	3449490.0	0.237110	-0.726358
     29051.10	0.13234	2127644.0	1678816.0	3471131.0	0.236926	-0.726392
     29051.59	0.12990	2088320.0	1647840.0	3406874.0	0.236895	-0.726330
     29052.08	0.12251	1966260.0	1551617.0	3208127.0	0.236836	-0.726390
     29052.56	0.13524	2167100.0	1710073.0	3535205.0	0.236854	-0.726235
     29053.05	0.10676	1711059.0	1350361.0	2792046.0	0.236741	-0.726403
     29053.53	0.12637	2028200.0	1600687.0	3309765.0	0.236716	-0.726444
     29054.02	0.12411	1982333.0	1564392.0	3234730.0	0.236777	-0.726448
     29054.50	0.13372	2142510.0	1691026.0	3496214.0	0.236643	-0.726345
     29054.99	0.12947	2073020.0	1635957.0	3382354.0	0.236779	-0.726344
     29055.47	0.12085	1942411.0	1533305.0	3170344.0	0.236504	-0.726415
     29055.96	0.13197	2120274.0	1673611.0	3460328.0	0.236562	-0.726380
     29056.44	0.13254	2128431.0	1679832.0	3472990.0	0.236691	-0.726322
     29056.93	0.12496	2007241.0	1584066.0	3274949.0	0.236766	-0.726307
     29057.41	0.12575	2021181.0	1595468.0	3298746.0	0.236515	-0.726375
     29057.90	0.13206	2109746.0	1665187.0	3442679.0	0.236630	-0.726313
     29058.39	0.13285	2134095.0	1684841.0	3483128.0	0.236371	-0.726260
     29058.87	0.12858	2067010.0	1631818.0	3373006.0	0.236408	-0.726110
     29059.36	0.11671	1868251.0	1474924.0	3049124.0	0.236396	-0.726248
     29059.84	0.12948	2081539.0	1643057.0	3396815.0	0.236549	-0.726280
     29060.33	0.13892	2234077.0	1763555.0	3645662.0	0.236497	-0.726206
     29060.81	0.10988	1764418.0	1393004.0	2878850.0	0.236358	-0.725928
     29061.30	0.11585	1860215.0	1468731.0	3036280.0	0.236293	-0.726234
     29061.78	0.13092	2105110.0	1662161.0	3436508.0	0.236249	-0.726337
     29062.27	0.12167	1953889.0	1542879.0	3189098.0	0.236172	-0.726088
     29062.76	0.12503	2008977.0	1586483.0	3278385.0	0.236106	-0.725831
     29063.24	0.12401	1987061.0	1568863.0	3242899.0	0.236306	-0.726117
     29063.73	0.13239	2124493.0	1677491.0	3466399.0	0.236234	-0.725817
     29064.21	0.13584	2182767.0	1723783.0	3562874.0	0.236072	-0.726046
     29064.70	0.088628	1425431.0	1125565.0	2326040.0	0.236189	-0.725882
     29065.18	0.11763	1888026.0	1491120.0	3081216.0	0.236004	-0.725797
     29065.67	0.088300	1418449.0	1120504.0	2316093.0	0.235785	-0.726103
     29066.16	0.12216	1956757.0	1545372.0	3193991.0	0.236024	-0.726007
     29066.64	0.11661	1872743.0	1478804.0	3056564.0	0.236171	-0.726058
     29067.13	0.13037	2087430.0	1648543.0	3406585.0	0.236042	-0.725818
     29067.61	0.15096	2421071.0	1912646.0	3952252.0	0.235722	-0.725798
     29068.10	0.14006	2245921.0	1774348.0	3665993.0	0.235683	-0.725666
     29068.59	0.088912	1427447.0	1127554.0	2329864.0	0.235837	-0.725759
     29069.07	0.12439	1996235.0	1576770.0	3257895.0	0.235884	-0.725703
     29069.56	0.12816	2050893.0	1619552.0	3347030.0	0.236126	-0.725924
     29070.04	0.12738	2041943.0	1613142.0	3332518.0	0.235718	-0.725544
     29070.53	0.12983	2078658.0	1642334.0	3393583.0	0.235604	-0.725768
     29071.01	0.13635	2185337.0	1726933.0	3567320.0	0.235423	-0.725468
     29071.50	0.19707	3154561.0	2492287.0	5148739.0	0.235649	-0.725551
     29071.99	0.094278	1502711.0	1186834.0	2451970.0	0.235982	-0.725603
     29072.47	0.092838	1484791.0	1173082.0	2423374.0	0.235640	-0.725526
     29072.96	0.12337	1977263.0	1562384.0	3227777.0	0.235501	-0.725581
     29073.44	0.13253	2124605.0	1678760.0	3467669.0	0.235530	-0.725427
     29073.93	0.12791	2041166.0	1613329.0	3332474.0	0.235221	-0.725415
     29074.42	0.13026	2080163.0	1643521.0	3393862.0	0.235605	-0.725128
     29074.90	0.14115	2256499.0	1783175.0	3682750.0	0.235419	-0.725264
     29075.39	0.17146	2749550.0	2172684.0	4487588.0	0.235474	-0.725352
     29075.87	0.13225	2113581.0	1670424.0	3449852.0	0.235306	-0.725254
     29076.36	0.099843	1600083.0	1264736.0	2611368.0	0.235192	-0.725011
     29076.85	0.12892	2066261.0	1633064.0	3372313.0	0.235283	-0.725141
     29077.33	0.12756	2045872.0	1616998.0	3338907.0	0.235253	-0.725072
     29077.82	0.12988	2078738.0	1642593.0	3391195.0	0.235485	-0.724906
     29078.31	0.13075	2084684.0	1647980.0	3402380.0	0.235067	-0.724925
     29078.79	0.12246	1955895.0	1545914.0	3191720.0	0.235233	-0.724945
     29079.28	0.14800	2366353.0	1870205.0	3860942.0	0.235302	-0.724863
     29079.76	0.11161	1784563.0	1410514.0	2911513.0	0.235219	-0.724719
     29080.25	0.11991	1919329.0	1516834.0	3131092.0	0.235350	-0.724757
     29080.74	0.12643	2021478.0	1598202.0	3297621.0	0.234950	-0.724322
     29081.22	0.12762	2040711.0	1613149.0	3329205.0	0.235110	-0.724545
     29081.71	0.12607	2016971.0	1594318.0	3289661.0	0.235151	-0.724338
     29082.20	0.12776	2041945.0	1613663.0	3329904.0	0.235396	-0.724437
     29082.68	0.12715	2035584.0	1609066.0	3320788.0	0.235129	-0.724548
     29083.17	0.12075	1932046.0	1527553.0	3150884.0	0.234912	-0.724016
     29083.65	0.11624	1858403.0	1469575.0	3032617.0	0.234744	-0.724453
     29084.14	0.12866	2058193.0	1627259.0	3357103.0	0.234931	-0.724181
     29084.63	0.11239	1795661.0	1419787.0	2929025.0	0.234866	-0.724163
     29085.11	0.12196	1953007.0	1543811.0	3184610.0	0.235116	-0.724076
     29085.60	0.12031	1925885.0	1522441.0	3139888.0	0.235071	-0.723872
     29086.09	0.13261	2120472.0	1676724.0	3458396.0	0.234797	-0.723963
     29086.57	0.11948	1909177.0	1509793.0	3113977.0	0.234700	-0.723928
     29087.06	0.12028	1921910.0	1519364.0	3133349.0	0.235028	-0.723811
     29087.55	0.13922	2226157.0	1760727.0	3630255.0	0.234550	-0.723576
     29088.03	0.12094	1931385.0	1527397.0	3149208.0	0.234672	-0.723586
     29088.52	0.12801	2046850.0	1618433.0	3337036.0	0.234844	-0.723625
     29089.01	0.13484	2155488.0	1704662.0	3514281.0	0.234650	-0.723468
     29089.49	0.12256	1960462.0	1550577.0	3196215.0	0.234553	-0.723340
     29089.98	0.13004	2080092.0	1645289.0	3392022.0	0.234496	-0.723510
     29090.47	0.12272	1960146.0	1549991.0	3194620.0	0.234770	-0.723219
     29090.95	0.12514	2000152.0	1581632.0	3260445.0	0.234766	-0.723406
     29091.44	0.13237	2116375.0	1673528.0	3449027.0	0.234771	-0.723158
     29091.93	0.11705	1871572.0	1479982.0	3049657.0	0.234749	-0.722999
     29092.41	0.12499	2000684.0	1582300.0	3260522.0	0.234610	-0.723008
     29092.90	0.13056	2086103.0	1649822.0	3398958.0	0.234630	-0.722802
     29093.39	0.11756	1874930.0	1482473.0	3053875.0	0.234860	-0.722700
     29093.87	0.14053	2243220.0	1774493.0	3655550.0	0.234398	-0.722732
     29094.36	0.12253	1960335.0	1550525.0	3193683.0	0.234522	-0.722581
     29094.85	0.14137	2259818.0	1787238.0	3681155.0	0.234613	-0.722555
     29095.33	0.11449	1830214.0	1448202.0	2982074.0	0.234110	-0.722296
     29095.82	0.13627	2178614.0	1723298.0	3548481.0	0.234449	-0.722280
     29096.31	0.12385	1977303.0	1563956.0	3220244.0	0.234515	-0.722239
     29096.79	0.12671	2022097.0	1599507.0	3292557.0	0.234440	-0.721969
     29097.28	0.13714	2191320.0	1733911.0	3568643.0	0.234125	-0.721806
     29097.77	0.13810	2206578.0	1745470.0	3592897.0	0.234419	-0.721935
     29098.25	0.10592	1692635.0	1339177.0	2755890.0	0.234231	-0.721685
     29098.74	0.13466	2152771.0	1703193.0	3504610.0	0.234251	-0.721575
     29099.23	0.11526	1840361.0	1455886.0	2995549.0	0.234347	-0.721513
     29099.71	0.12684	2023887.0	1601630.0	3295042.0	0.233998	-0.721397
     29100.20	0.11487	1834783.0	1451672.0	2986564.0	0.234210	-0.721408
     29100.69	0.12310	1964587.0	1554348.0	3196751.0	0.234226	-0.721079
     29101.17	0.12956	2068394.0	1636620.0	3365719.0	0.234139	-0.721008
     29101.66	0.11696	1863979.0	1474689.0	3032401.0	0.234266	-0.720908
     29102.15	0.13412	2132053.0	1687263.0	3469337.0	0.233978	-0.720856
     29102.64	0.10054	1600923.0	1267025.0	2604542.0	0.233909	-0.720585
     29103.12	0.11361	1806102.0	1429319.0	2938298.0	0.233973	-0.720632
     29103.61	0.11118	1766853.0	1398475.0	2874656.0	0.233818	-0.720551
     29104.10	0.11175	1775860.0	1405304.0	2888034.0	0.234031	-0.720322
     29104.58	0.11516	1832788.0	1450337.0	2980539.0	0.234042	-0.720308
     29105.07	0.12127	1929730.0	1526628.0	3136435.0	0.234319	-0.720025
     29105.56	0.12546	1992599.0	1577206.0	3239900.0	0.233785	-0.719888
     29106.04	0.12974	2058310.0	1628979.0	3345552.0	0.233932	-0.719678
     29106.53	0.11523	1827922.0	1446954.0	2970786.0	0.233719	-0.719366
     29107.02	0.13114	2084817.0	1650117.0	3388205.0	0.233835	-0.719454
     29107.51	0.13607	2164101.0	1712834.0	3516567.0	0.233856	-0.719336
     29107.99	0.11427	1819171.0	1439613.0	2954666.0	0.234007	-0.719011
     29108.48	0.13277	2114244.0	1673261.0	3434541.0	0.233923	-0.719109
     29108.97	0.13539	2153275.0	1704358.0	3497368.0	0.233801	-0.718822
     29109.46	0.13749	2191596.0	1734475.0	3558267.0	0.233925	-0.718569
     29109.94	0.12575	2004523.0	1586792.0	3254246.0	0.233692	-0.718246
     29110.43	0.12490	1984194.0	1570458.0	3220526.0	0.233845	-0.718177
     29110.92	0.13035	2078656.0	1645101.0	3373414.0	0.233920	-0.718124
     29111.40	0.11986	1910130.0	1511821.0	3099203.0	0.233856	-0.717830
     29111.89	0.12638	2015516.0	1595492.0	3270000.0	0.233693	-0.717608
     29112.38	0.13434	2140651.0	1694517.0	3472456.0	0.233712	-0.717464
     29112.87	0.13462	2145393.0	1698429.0	3479089.0	0.233619	-0.717067
     29113.35	0.12427	1980483.0	1567698.0	3210964.0	0.233732	-0.716963
     29113.84	0.14977	2386900.0	1890215.0	3870912.0	0.233305	-0.716800
     29114.33	0.13543	2143500.0	1697039.0	3474781.0	0.233555	-0.716646
     29114.82	0.13804	2193930.0	1737005.0	3555649.0	0.233532	-0.716375
     29115.30	0.12057	1917675.0	1518180.0	3106653.0	0.233601	-0.716034
     29115.79	0.13995	2226222.0	1762556.0	3605908.0	0.233541	-0.715809
     29116.28	0.13601	2164991.0	1714208.0	3506986.0	0.233465	-0.715806
     29116.77	0.12816	2039699.0	1615232.0	3303839.0	0.233324	-0.715607
     29117.25	0.12084	1915330.0	1516408.0	3100828.0	0.233546	-0.715325
     29117.74	0.12909	2051358.0	1624352.0	3320021.0	0.233393	-0.714862
     29118.23	0.12094	1923969.0	1523415.0	3113298.0	0.233436	-0.714728
     29118.72	0.11794	1876853.0	1486385.0	3036790.0	0.233249	-0.714454
     29119.20	0.12656	2012402.0	1593871.0	3254964.0	0.233163	-0.714016
     29119.69	0.12113	1916673.0	1517743.0	3099314.0	0.233367	-0.713956
     29120.18	0.13397	2127930.0	1684909.0	3439776.0	0.233438	-0.713695
     29120.67	0.12738	2025673.0	1604413.0	3274241.0	0.233144	-0.713328
     29121.15	0.12152	1932865.0	1530895.0	3123219.0	0.233151	-0.713012
     29121.64	0.13070	2078361.0	1645676.0	3357320.0	0.233428	-0.712992
     29122.13	0.11831	1881596.0	1489973.0	3038783.0	0.233362	-0.712699
     29122.62	0.12144	1930125.0	1528339.0	3115647.0	0.233403	-0.712255
     29123.10	0.11669	1854687.0	1469013.0	2994092.0	0.233125	-0.712050
     29123.59	0.12299	1956418.0	1549370.0	3156447.0	0.233267	-0.711599
     29124.08	0.11436	1817550.0	1439560.0	2932237.0	0.233152	-0.711428
     29124.57	0.13000	2067008.0	1637073.0	3333517.0	0.233192	-0.711118
     29125.06	0.10527	1675117.0	1326613.0	2700315.0	0.233254	-0.710739
     29125.54	0.12943	2055642.0	1628091.0	3313220.0	0.233180	-0.710512
